LabVIEW Measurement	
Writer_Version	2
Reader_Version	2
Separator	Tab
Decimal_Separator	.
Multi_Headings	No
X_Columns	One
Time_Pref	Relative
Operator	Hamma
Date	2022/05/23
Time	09:56:00.6337847709655761719
***End_of_Header***	
	
Notes	Valeurs de X garanties valides uniquement pour Untitled			
Channels	3			
Samples	3648	3648	1	
Date	1904/01/01	1904/01/01	2022/05/23	
Time	01:00:00	01:00:00	10:30:42.3327665328979492187	
X_Dimension	Time	Time	Time	
X0	0.0000000000000000E+0	0.0000000000000000E+0	0.0000000000000000E+0	
Delta_X	1.000000	1.000000	1.000000	
***End_of_Header***				
X_Value	Untitled	Untitled 1	Untitled 2	Comment
0.000000	321.444660	0.007131	0.842477	23/05/2022 10:30:42
1.000000	321.552283	-0.001803	
2.000000	321.659912	-0.002305	
3.000000	321.767548	0.013029	
4.000000	321.875191	0.008737	
5.000000	321.982840	0.008361	
6.000000	322.090496	-0.001702	
7.000000	322.198159	0.009365	
8.000000	322.305828	0.012451	
9.000000	322.413503	-0.004438	
10.000000	322.521186	0.000205	
11.000000	322.628875	0.012075	
12.000000	322.736570	0.006002	
13.000000	322.844272	0.001033	
14.000000	322.951981	-0.004413	
15.000000	323.059696	0.014384	
16.000000	323.167418	0.011849	
17.000000	323.275147	0.002890	
18.000000	323.382882	-0.001928	
19.000000	323.490624	0.009390	
20.000000	323.598372	0.015011	
21.000000	323.706127	-0.002054	
22.000000	323.813889	-0.006822	
23.000000	323.921657	0.006981	
24.000000	324.029431	0.018123	
25.000000	324.137213	-0.003007	
26.000000	324.245000	0.003091	
27.000000	324.352795	0.009239	
28.000000	324.460596	0.015789	
29.000000	324.568404	-0.004940	
30.000000	324.676218	0.000130	
31.000000	324.784039	0.012778	
32.000000	324.891866	0.014936	
33.000000	324.999700	-0.002054	
34.000000	325.107540	-0.001627	
35.000000	325.215387	0.009842	
36.000000	325.323241	0.017270	
37.000000	325.431101	-0.004613	
38.000000	325.538968	-0.004563	
39.000000	325.646841	0.007307	
40.000000	325.754721	0.014133	
41.000000	325.862608	-0.002430	
42.000000	325.970501	-0.001050	
43.000000	326.078400	0.015438	
44.000000	326.186306	0.011774	
45.000000	326.294219	-0.000673	
46.000000	326.402138	0.000506	
47.000000	326.510064	0.004446	
48.000000	326.617996	0.009264	
49.000000	326.725935	-0.002932	
50.000000	326.833881	-0.001878	
51.000000	326.941833	0.015864	
52.000000	327.049791	0.009616	
53.000000	327.157756	-0.001251	
54.000000	327.265728	-0.001828	
55.000000	327.373706	0.019177	
56.000000	327.481690	0.021059	
57.000000	327.589682	-0.002003	
58.000000	327.697679	-0.002756	
59.000000	327.805683	0.014585	
60.000000	327.913694	0.013330	
61.000000	328.021712	-0.002380	
62.000000	328.129735	-0.004965	
63.000000	328.237766	0.014359	
64.000000	328.345802	0.018349	
65.000000	328.453846	-0.001552	
66.000000	328.561896	0.001133	
67.000000	328.669952	0.021109	
68.000000	328.778015	0.008762	
69.000000	328.886084	-0.002706	
70.000000	328.994160	-9.619849E-5	
71.000000	329.102243	0.020482	
72.000000	329.210332	0.012527	
73.000000	329.318427	0.000305	
74.000000	329.426529	-0.000598	
75.000000	329.534638	0.008813	
76.000000	329.642753	0.022490	
77.000000	329.750874	-0.001200	
78.000000	329.859002	0.001384	
79.000000	329.967136	0.011247	
80.000000	330.075277	0.015664	
81.000000	330.183425	0.000230	
82.000000	330.291579	-0.000372	
83.000000	330.399739	0.021084	
84.000000	330.507906	0.011172	
85.000000	330.616079	-0.005492	
86.000000	330.724259	-0.001978	
87.000000	330.832446	0.021235	
88.000000	330.940638	0.015086	
89.000000	331.048838	-0.001476	
90.000000	331.157043	-0.002957	
91.000000	331.265256	0.019277	
92.000000	331.373474	0.012652	
93.000000	331.481700	-0.003007	
94.000000	331.589931	-0.001878	
95.000000	331.698169	0.015764	
96.000000	331.806414	0.012351	
97.000000	331.914665	-0.003760	
98.000000	332.022922	-0.002907	
99.000000	332.131186	0.018173	
100.000000	332.239457	0.013004	
101.000000	332.347734	-0.002430	
102.000000	332.456017	-0.000749	
103.000000	332.564307	0.016442	
104.000000	332.672603	0.008511	
105.000000	332.780906	-0.001652	
106.000000	332.889215	0.000832	
107.000000	332.997531	0.016241	
108.000000	333.105853	0.009239	
109.000000	333.214181	0.000908	
110.000000	333.322516	-0.002405	
111.000000	333.430857	0.018951	
112.000000	333.539205	0.013731	
113.000000	333.647559	0.003216	
114.000000	333.755920	-0.001301	
115.000000	333.864287	0.022615	
116.000000	333.972661	0.014233	
117.000000	334.081041	-0.005391	
118.000000	334.189427	-0.001602	
119.000000	334.297820	0.012050	
120.000000	334.406219	0.006253	
121.000000	334.514625	-0.001150	
122.000000	334.623037	-0.001928	
123.000000	334.731455	0.016642	
124.000000	334.839880	0.009967	
125.000000	334.948312	-0.002104	
126.000000	335.056749	-0.003559	
127.000000	335.165194	0.010143	
128.000000	335.273644	0.019001	
129.000000	335.382101	-0.003083	
130.000000	335.490564	-0.003308	
131.000000	335.599034	0.005450	
132.000000	335.707510	0.010017	
133.000000	335.815993	-0.003233	
134.000000	335.924482	-0.001752	
135.000000	336.032978	0.007207	
136.000000	336.141479	0.017445	
137.000000	336.249988	-0.000548	
138.000000	336.358502	-0.001828	
139.000000	336.467023	0.007181	
140.000000	336.575550	0.024623	
141.000000	336.684084	-0.002355	
142.000000	336.792624	0.000531	
143.000000	336.901171	0.013229	
144.000000	337.009724	0.018926	
145.000000	337.118283	-0.001978	
146.000000	337.226849	0.000531	
147.000000	337.335421	0.003543	
148.000000	337.443999	0.009967	
149.000000	337.552584	-0.002029	
150.000000	337.661175	0.000531	
151.000000	337.769773	0.014635	
152.000000	337.878377	0.011197	
153.000000	337.986987	0.003794	
154.000000	338.095604	-0.002355	
155.000000	338.204227	0.013882	
156.000000	338.312856	0.013556	
157.000000	338.421492	-2.091271E-5	
158.000000	338.530134	-0.001301	
159.000000	338.638782	0.012175	
160.000000	338.747437	0.014886	
161.000000	338.856098	-0.002305	
162.000000	338.964766	-0.002706	
163.000000	339.073440	0.011473	
164.000000	339.182120	0.018524	
165.000000	339.290807	0.002012	
166.000000	339.399499	-0.001828	
167.000000	339.508199	0.012150	
168.000000	339.616904	0.009917	
169.000000	339.725616	-0.005316	
170.000000	339.834335	-0.000222	
171.000000	339.943059	0.014660	
172.000000	340.051790	0.014911	
173.000000	340.160527	0.000381	
174.000000	340.269271	0.002840	
175.000000	340.378021	0.012075	
176.000000	340.486777	0.013832	
177.000000	340.595540	0.002438	
178.000000	340.704309	0.000606	
179.000000	340.813084	0.010519	
180.000000	340.921866	0.016015	
181.000000	341.030653	-0.003810	
182.000000	341.139448	0.001460	
183.000000	341.248248	0.005726	
184.000000	341.357055	0.008486	
185.000000	341.465868	0.000933	
186.000000	341.574688	-0.001200	
187.000000	341.683513	0.011372	
188.000000	341.792346	0.011749	
189.000000	341.901184	-0.002129	
190.000000	342.010029	-0.002530	
191.000000	342.118880	0.003768	
192.000000	342.227737	0.010645	
193.000000	342.336601	-0.001426	
194.000000	342.445470	0.000105	
195.000000	342.554347	0.002087	
196.000000	342.663229	0.010268	
197.000000	342.772118	0.000581	
198.000000	342.881013	0.000682	
199.000000	342.989914	0.009616	
200.000000	343.098822	0.011046	
201.000000	343.207736	-0.001100	
202.000000	343.316656	-0.000623	
203.000000	343.425583	0.013832	
204.000000	343.534515	0.016467	
205.000000	343.643455	-0.003835	
206.000000	343.752400	-0.000197	
207.000000	343.861352	0.017019	
208.000000	343.970309	0.011523	
209.000000	344.079274	0.004797	
210.000000	344.188244	0.004797	
211.000000	344.297221	0.011423	
212.000000	344.406204	0.023995	
213.000000	344.515193	-0.001928	
214.000000	344.624188	-0.003509	
215.000000	344.733190	0.017395	
216.000000	344.842198	0.026053	
217.000000	344.951212	-0.002480	
218.000000	345.060233	0.000456	
219.000000	345.169260	0.011648	
220.000000	345.278293	0.007984	
221.000000	345.387332	-0.005743	
222.000000	345.496378	-0.000598	
223.000000	345.605430	0.010469	
224.000000	345.714488	0.006554	
225.000000	345.823552	5.437306E-5	
226.000000	345.932622	0.004622	
227.000000	346.041699	0.014058	
228.000000	346.150782	0.016943	
229.000000	346.259871	0.000205	
230.000000	346.368967	-0.001276	
231.000000	346.478069	0.013079	
232.000000	346.587177	0.011423	
233.000000	346.696291	-0.005241	
234.000000	346.805411	0.004371	
235.000000	346.914538	0.021260	
236.000000	347.023671	0.016241	
237.000000	347.132810	0.001635	
238.000000	347.241955	-0.002656	
239.000000	347.351107	0.004120	
240.000000	347.460264	0.008160	
241.000000	347.569428	0.000305	
242.000000	347.678599	0.000356	
243.000000	347.787775	0.014911	
244.000000	347.896958	0.011724	
245.000000	348.006146	0.000732	
246.000000	348.115341	0.000330	
247.000000	348.224543	0.018324	
248.000000	348.333750	0.012627	
249.000000	348.442964	-0.001150	
250.000000	348.552184	-0.005416	
251.000000	348.661410	0.020432	
252.000000	348.770642	0.013405	
253.000000	348.879880	-0.002003	
254.000000	348.989125	-0.002857	
255.000000	349.098376	0.013882	
256.000000	349.207633	0.008687	
257.000000	349.316896	-0.002556	
258.000000	349.426165	-0.005768	
259.000000	349.535441	0.009340	
260.000000	349.644723	0.002714	
261.000000	349.754011	0.003091	
262.000000	349.863305	-0.002430	
263.000000	349.972605	0.021561	
264.000000	350.081912	0.013907	
265.000000	350.191224	0.007959	
266.000000	350.300543	0.000406	
267.000000	350.409868	0.018901	
268.000000	350.519200	0.016893	
269.000000	350.628537	-0.000171	
270.000000	350.737880	-4.600797E-5	
271.000000	350.847230	0.010569	
272.000000	350.956586	0.010921	
273.000000	351.065948	-0.002606	
274.000000	351.175316	5.437306E-5	
275.000000	351.284691	0.014158	
276.000000	351.394071	0.011272	
277.000000	351.503458	0.001460	
278.000000	351.612851	-0.002330	
279.000000	351.722250	0.021937	
280.000000	351.831655	0.016467	
281.000000	351.941066	-2.091271E-5	
282.000000	352.050483	0.000481	
283.000000	352.159907	0.019177	
284.000000	352.269337	0.007834	
285.000000	352.378772	-0.002079	
286.000000	352.488214	-0.000372	
287.000000	352.597663	0.013054	
288.000000	352.707117	0.013179	
289.000000	352.816577	0.001234	
290.000000	352.926044	0.003116	
291.000000	353.035516	0.019378	
292.000000	353.144995	0.008235	
293.000000	353.254480	0.001359	
294.000000	353.363971	-0.000975	
295.000000	353.473468	0.007784	
296.000000	353.582972	0.008938	
297.000000	353.692481	0.001937	
298.000000	353.801997	0.002765	
299.000000	353.911518	0.008838	
300.000000	354.021046	0.018750	
301.000000	354.130580	0.000280	
302.000000	354.240120	-0.002932	
303.000000	354.349666	0.014459	
304.000000	354.459218	0.006504	
305.000000	354.568777	-0.004137	
306.000000	354.678341	-0.002781	
307.000000	354.787912	0.014534	
308.000000	354.897488	0.012677	
309.000000	355.007071	0.001937	
310.000000	355.116660	-4.600797E-5	
311.000000	355.226255	0.006855	
312.000000	355.335856	0.032503	
313.000000	355.445463	-7.110323E-5	
314.000000	355.555076	-0.002430	
315.000000	355.664696	0.012577	
316.000000	355.774321	0.016216	
317.000000	355.883953	0.002464	
318.000000	355.993590	0.001008	
319.000000	356.103234	0.019252	
320.000000	356.212884	0.010996	
321.000000	356.322539	0.001610	
322.000000	356.432201	-0.003584	
323.000000	356.541869	0.018750	
324.000000	356.651543	0.021988	
325.000000	356.761224	-0.001752	
326.000000	356.870910	0.000105	
327.000000	356.980602	0.015312	
328.000000	357.090300	0.022339	
329.000000	357.200005	-0.001702	
330.000000	357.309715	0.002213	
331.000000	357.419432	0.011799	
332.000000	357.529154	0.007006	
333.000000	357.638883	0.007407	
334.000000	357.748618	5.437306E-5	
335.000000	357.858359	0.010243	
336.000000	357.968105	0.013280	
337.000000	358.077858	-0.001326	
338.000000	358.187617	-0.000698	
339.000000	358.297382	0.006454	
340.000000	358.407153	0.014911	
341.000000	358.516930	0.005927	
342.000000	358.626714	0.001334	
343.000000	358.736503	0.014032	
344.000000	358.846298	0.009791	
345.000000	358.956099	-0.002079	
346.000000	359.065906	0.002614	
347.000000	359.175720	0.019704	
348.000000	359.285539	0.022389	
349.000000	359.395365	-0.000272	
350.000000	359.505196	0.000606	
351.000000	359.615033	0.006981	
352.000000	359.724877	0.017445	
353.000000	359.834726	-0.002505	
354.000000	359.944582	-0.000799	
355.000000	360.054444	0.011924	
356.000000	360.164311	0.010494	
357.000000	360.274185	-0.000749	
358.000000	360.384064	0.003944	
359.000000	360.493950	0.007508	
360.000000	360.603842	0.005902	
361.000000	360.713739	-0.001301	
362.000000	360.823643	4.182543E-6	
363.000000	360.933553	0.007934	
364.000000	361.043468	0.011849	
365.000000	361.153390	-0.000121	
366.000000	361.263318	0.002313	
367.000000	361.373251	0.015086	
368.000000	361.483191	0.007533	
369.000000	361.593137	2.927780E-5	
370.000000	361.703088	0.001510	
371.000000	361.813046	0.007432	
372.000000	361.923010	0.018801	
373.000000	362.032980	0.001560	
374.000000	362.142955	-0.001401	
375.000000	362.252937	0.009089	
376.000000	362.362924	0.010017	
377.000000	362.472918	0.003944	
378.000000	362.582918	0.000531	
379.000000	362.692923	0.022590	
380.000000	362.802935	0.011774	
381.000000	362.912952	-0.003534	
382.000000	363.022976	-0.000372	
383.000000	363.133005	0.008863	
384.000000	363.243041	0.014509	
385.000000	363.353082	0.007884	
386.000000	363.463130	0.001610	
387.000000	363.573183	0.012978	
388.000000	363.683243	0.011423	
389.000000	363.793308	7.946832E-5	
390.000000	363.903379	-0.001200	
391.000000	364.013456	0.017119	
392.000000	364.123540	0.016743	
393.000000	364.233629	0.002965	
394.000000	364.343724	0.001987	
395.000000	364.453825	0.008411	
396.000000	364.563932	0.012376	
397.000000	364.674045	0.003944	
398.000000	364.784164	-0.001200	
399.000000	364.894289	0.016442	
400.000000	365.004419	0.016868	
401.000000	365.114556	-0.002806	
402.000000	365.224699	-0.002581	
403.000000	365.334847	0.009390	
404.000000	365.445002	0.011749	
405.000000	365.555163	0.005073	
406.000000	365.665329	0.001585	
407.000000	365.775501	0.014384	
408.000000	365.885680	0.016517	
409.000000	365.995864	0.002037	
410.000000	366.106054	-0.001527	
411.000000	366.216250	0.010845	
412.000000	366.326452	0.014108	
413.000000	366.436660	0.002689	
414.000000	366.546874	-0.002480	
415.000000	366.657094	0.012527	
416.000000	366.767320	0.013781	
417.000000	366.877551	0.003041	
418.000000	366.987789	0.002187	
419.000000	367.098032	0.007759	
420.000000	367.208282	0.021486	
421.000000	367.318537	0.001159	
422.000000	367.428798	-0.001175	
423.000000	367.539065	0.012226	
424.000000	367.649338	0.025626	
425.000000	367.759617	0.001334	
426.000000	367.869902	0.005450	
427.000000	367.980192	0.007959	
428.000000	368.090489	0.014685	
429.000000	368.200791	-0.000372	
430.000000	368.311100	0.004647	
431.000000	368.421414	0.004170	
432.000000	368.531734	0.014258	
433.000000	368.642060	0.000606	
434.000000	368.752392	-0.001125	
435.000000	368.862730	0.013004	
436.000000	368.973074	0.015965	
437.000000	369.083423	0.006529	
438.000000	369.193779	-0.001025	
439.000000	369.304140	0.016040	
440.000000	369.414508	0.026605	
441.000000	369.524881	0.001008	
442.000000	369.635260	0.034811	
443.000000	369.745644	0.022264	
444.000000	369.856035	0.017094	
445.000000	369.966432	-0.000322	
446.000000	370.076834	-0.000322	
447.000000	370.187243	0.009189	
448.000000	370.297657	0.021661	
449.000000	370.408077	0.003066	
450.000000	370.518503	0.000330	
451.000000	370.628934	0.007483	
452.000000	370.739372	0.018073	
453.000000	370.849816	0.005149	
454.000000	370.960265	0.000506	
455.000000	371.070720	0.021461	
456.000000	371.181181	0.017119	
457.000000	371.291648	0.003693	
458.000000	371.402121	-0.000724	
459.000000	371.512599	0.015639	
460.000000	371.623084	0.007282	
461.000000	371.733574	0.003191	
462.000000	371.844070	-0.001627	
463.000000	371.954572	0.008386	
464.000000	372.065080	0.012978	
465.000000	372.175593	0.003467	
466.000000	372.286113	0.007006	
467.000000	372.396638	0.016943	
468.000000	372.507169	0.016969	
469.000000	372.617706	-0.000824	
470.000000	372.728249	0.002915	
471.000000	372.838797	0.012477	
472.000000	372.949352	0.014911	
473.000000	373.059912	0.000983	
474.000000	373.170478	5.437306E-5	
475.000000	373.281050	0.018725	
476.000000	373.391628	0.016617	
477.000000	373.502211	0.004446	
478.000000	373.612800	-0.000573	
479.000000	373.723396	0.007483	
480.000000	373.833996	0.010268	
481.000000	373.944603	0.002288	
482.000000	374.055216	-0.001853	
483.000000	374.165834	0.023468	
484.000000	374.276458	0.011724	
485.000000	374.387088	0.001359	
486.000000	374.497724	0.002438	
487.000000	374.608365	0.029792	
488.000000	374.719013	0.005349	
489.000000	374.829666	0.000807	
490.000000	374.940325	0.001033	
491.000000	375.050990	0.014685	
492.000000	375.161660	0.015965	
493.000000	375.272336	-0.001000	
494.000000	375.383018	-0.002907	
495.000000	375.493706	0.017220	
496.000000	375.604400	0.013505	
497.000000	375.715099	0.001384	
498.000000	375.825804	0.001209	
499.000000	375.936515	0.009716	
500.000000	376.047232	0.004346	
501.000000	376.157955	0.002489	
502.000000	376.268683	0.002664	
503.000000	376.379417	0.014660	
504.000000	376.490157	0.015563	
505.000000	376.600902	0.002112	
506.000000	376.711654	-0.004111	
507.000000	376.822411	0.007608	
508.000000	376.933174	0.020457	
509.000000	377.043942	0.004070	
510.000000	377.154717	0.001836	
511.000000	377.265497	0.018048	
512.000000	377.376283	0.022113	
513.000000	377.487074	0.001058	
514.000000	377.597872	0.000908	
515.000000	377.708675	0.012150	
516.000000	377.819484	0.013756	
517.000000	377.930299	0.006780	
518.000000	378.041119	0.003618	
519.000000	378.151945	0.016592	
520.000000	378.262777	0.021686	
521.000000	378.373615	0.004973	
522.000000	378.484458	0.003768	
523.000000	378.595307	0.009666	
524.000000	378.706162	0.010795	
525.000000	378.817022	0.003216	
526.000000	378.927889	0.001108	
527.000000	379.038761	0.013731	
528.000000	379.149638	0.020607	
529.000000	379.260522	0.005299	
530.000000	379.371411	-0.000146	
531.000000	379.482306	0.012878	
532.000000	379.593207	0.014083	
533.000000	379.704113	-0.000774	
534.000000	379.815025	0.000682	
535.000000	379.925943	0.014183	
536.000000	380.036866	0.013781	
537.000000	380.147795	0.001886	
538.000000	380.258730	-0.001050	
539.000000	380.369671	0.018625	
540.000000	380.480617	0.008436	
541.000000	380.591569	0.001660	
542.000000	380.702527	0.001159	
543.000000	380.813490	0.013531	
544.000000	380.924460	0.009465	
545.000000	381.035434	0.006780	
546.000000	381.146415	0.005149	
547.000000	381.257401	0.013505	
548.000000	381.368393	0.008562	
549.000000	381.479391	0.001284	
550.000000	381.590394	0.004321	
551.000000	381.701403	0.008788	
552.000000	381.812418	0.007658	
553.000000	381.923438	0.005299	
554.000000	382.034464	0.002614	
555.000000	382.145496	0.010619	
556.000000	382.256533	0.011849	
557.000000	382.367576	0.006328	
558.000000	382.478625	0.001886	
559.000000	382.589679	0.017470	
560.000000	382.700739	0.017295	
561.000000	382.811805	0.001987	
562.000000	382.922877	0.001410	
563.000000	383.033954	0.001911	
564.000000	383.145037	0.010946	
565.000000	383.256125	0.000230	
566.000000	383.367219	0.000531	
567.000000	383.478319	0.015613	
568.000000	383.589424	0.008612	
569.000000	383.700535	0.003392	
570.000000	383.811652	0.001911	
571.000000	383.922774	0.017972	
572.000000	384.033902	0.014233	
573.000000	384.145036	0.004998	
574.000000	384.256175	-0.001652	
575.000000	384.367320	0.024899	
576.000000	384.478471	0.017320	
577.000000	384.589627	-0.002430	
578.000000	384.700789	-0.000322	
579.000000	384.811957	0.006755	
580.000000	384.923130	0.013581	
581.000000	385.034309	0.004095	
582.000000	385.145493	0.002187	
583.000000	385.256683	0.016969	
584.000000	385.367879	0.009641	
585.000000	385.479080	0.003568	
586.000000	385.590287	0.004822	
587.000000	385.701500	0.018550	
588.000000	385.812718	0.008261	
589.000000	385.923942	0.001410	
590.000000	386.035171	0.001485	
591.000000	386.146406	0.022565	
592.000000	386.257647	0.009239	
593.000000	386.368893	0.001284	
594.000000	386.480145	-2.091271E-5	
595.000000	386.591403	0.017044	
596.000000	386.702666	0.010870	
597.000000	386.813935	0.001058	
598.000000	386.925209	0.001234	
599.000000	387.036489	0.017395	
600.000000	387.147775	0.020532	
601.000000	387.259066	0.001309	
602.000000	387.370363	0.003643	
603.000000	387.481665	0.003116	
604.000000	387.592973	0.011172	
605.000000	387.704286	0.002815	
606.000000	387.815606	-0.001627	
607.000000	387.926930	0.023544	
608.000000	388.038261	0.022063	
609.000000	388.149597	0.000506	
610.000000	388.260938	-0.001025	
611.000000	388.372285	0.008913	
612.000000	388.483638	0.014685	
613.000000	388.594996	0.003091	
614.000000	388.706360	0.006454	
615.000000	388.817729	0.010243	
616.000000	388.929104	0.016266	
617.000000	389.040485	0.002714	
618.000000	389.151871	0.003668	
619.000000	389.263263	0.014534	
620.000000	389.374660	0.008838	
621.000000	389.486063	0.004973	
622.000000	389.597471	0.000130	
623.000000	389.708885	0.003467	
624.000000	389.820305	0.011021	
625.000000	389.931730	0.000606	
626.000000	390.043161	-2.091271E-5	
627.000000	390.154597	0.012050	
628.000000	390.266039	0.015438	
629.000000	390.377486	0.004722	
630.000000	390.488939	0.002187	
631.000000	390.600397	0.013681	
632.000000	390.711861	0.011648	
633.000000	390.823331	0.001987	
634.000000	390.934806	0.001911	
635.000000	391.046287	0.009415	
636.000000	391.157773	0.008461	
637.000000	391.269265	-0.000197	
638.000000	391.380762	0.004245	
639.000000	391.492265	0.012025	
640.000000	391.603773	0.018399	
641.000000	391.715287	5.437306E-5	
642.000000	391.826806	-0.002606	
643.000000	391.938331	0.008612	
644.000000	392.049861	0.020783	
645.000000	392.161397	0.003518	
646.000000	392.272939	0.003768	
647.000000	392.384486	0.020984	
648.000000	392.496039	0.014735	
649.000000	392.607597	0.004019	
650.000000	392.719160	0.002539	
651.000000	392.830729	0.013706	
652.000000	392.942304	0.019905	
653.000000	393.053884	0.005375	
654.000000	393.165470	0.000456	
655.000000	393.277061	0.011297	
656.000000	393.388657	0.016416	
657.000000	393.500260	0.005073	
658.000000	393.611867	-0.000121	
659.000000	393.723480	0.025150	
660.000000	393.835099	0.022816	
661.000000	393.946723	0.001736	
662.000000	394.058353	0.002539	
663.000000	394.169988	0.010770	
664.000000	394.281629	0.012803	
665.000000	394.393275	-0.001677	
666.000000	394.504926	0.002012	
667.000000	394.616584	0.024673	
668.000000	394.728246	0.010820	
669.000000	394.839914	-9.619849E-5	
670.000000	394.951588	0.000456	
671.000000	395.063267	0.011021	
672.000000	395.174952	0.014660	
673.000000	395.286642	0.002112	
674.000000	395.398337	0.002740	
675.000000	395.510038	0.008938	
676.000000	395.621744	0.010720	
677.000000	395.733456	0.002037	
678.000000	395.845174	-0.002706	
679.000000	395.956897	0.015413	
680.000000	396.068625	0.005927	
681.000000	396.180359	-0.003233	
682.000000	396.292098	0.002238	
683.000000	396.403843	0.013355	
684.000000	396.515593	0.014058	
685.000000	396.627349	-0.000749	
686.000000	396.739110	-0.001351	
687.000000	396.850876	0.009365	
688.000000	396.962648	0.009415	
689.000000	397.074426	0.002489	
690.000000	397.186209	-0.002505	
691.000000	397.297997	0.012552	
692.000000	397.409791	0.011423	
693.000000	397.521590	0.005425	
694.000000	397.633395	-0.000448	
695.000000	397.745205	0.004371	
696.000000	397.857020	0.026555	
697.000000	397.968841	0.002514	
698.000000	398.080668	0.007984	
699.000000	398.192500	0.003794	
700.000000	398.304337	0.010971	
701.000000	398.416180	0.000531	
702.000000	398.528028	0.006830	
703.000000	398.639882	0.013756	
704.000000	398.751741	0.004923	
705.000000	398.863605	0.002639	
706.000000	398.975475	-0.000949	
707.000000	399.087350	0.008963	
708.000000	399.199231	0.010745	
709.000000	399.311117	0.002137	
710.000000	399.423009	0.004923	
711.000000	399.534906	0.018274	
712.000000	399.646808	0.014835	
713.000000	399.758716	-0.000422	
714.000000	399.870629	0.003618	
715.000000	399.982547	0.015036	
716.000000	400.094471	0.017194	
717.000000	400.206401	0.005249	
718.000000	400.318336	0.002363	
719.000000	400.430276	0.010996	
720.000000	400.542221	0.003417	
721.000000	400.654172	0.000155	
722.000000	400.766129	0.000180	
723.000000	400.878091	0.010770	
724.000000	400.990058	0.019478	
725.000000	401.102030	0.002087	
726.000000	401.214008	0.004672	
727.000000	401.325992	0.005826	
728.000000	401.437980	0.017044	
729.000000	401.549975	0.003543	
730.000000	401.661974	0.001711	
731.000000	401.773979	0.010569	
732.000000	401.885989	0.011423	
733.000000	401.998005	0.003292	
734.000000	402.110026	0.003216	
735.000000	402.222052	0.009164	
736.000000	402.334084	0.014032	
737.000000	402.446121	0.000481	
738.000000	402.558164	0.004070	
739.000000	402.670211	0.012301	
740.000000	402.782265	0.010770	
741.000000	402.894323	0.006705	
742.000000	403.006387	0.002991	
743.000000	403.118456	0.010845	
744.000000	403.230531	0.012953	
745.000000	403.342611	0.003492	
746.000000	403.454696	0.001786	
747.000000	403.566787	0.009013	
748.000000	403.678883	0.015789	
749.000000	403.790985	-0.003258	
750.000000	403.903091	0.006554	
751.000000	404.015204	0.011749	
752.000000	404.127321	0.010394	
753.000000	404.239444	0.001008	
754.000000	404.351572	0.000431	
755.000000	404.463705	0.009616	
756.000000	404.575844	0.005726	
757.000000	404.687988	0.001309	
758.000000	404.800138	-0.001276	
759.000000	404.912293	0.017220	
760.000000	405.024453	0.014434	
761.000000	405.136618	-0.001301	
762.000000	405.248789	0.005099	
763.000000	405.360965	0.018148	
764.000000	405.473147	0.014886	
765.000000	405.585333	0.006027	
766.000000	405.697526	0.003944	
767.000000	405.809723	0.014258	
768.000000	405.921926	0.007131	
769.000000	406.034134	0.002991	
770.000000	406.146347	0.000782	
771.000000	406.258566	0.008888	
772.000000	406.370790	0.013932	
773.000000	406.483019	0.003869	
774.000000	406.595254	0.003241	
775.000000	406.707493	0.015664	
776.000000	406.819739	0.004245	
777.000000	406.931989	0.003944	
778.000000	407.044245	0.004572	
779.000000	407.156506	0.029215	
780.000000	407.268772	0.012351	
781.000000	407.381044	-0.000222	
782.000000	407.493321	0.000381	
783.000000	407.605603	0.007934	
784.000000	407.717891	0.011699	
785.000000	407.830184	0.003292	
786.000000	407.942482	0.002664	
787.000000	408.054785	0.018650	
788.000000	408.167094	0.012878	
789.000000	408.279408	0.001485	
790.000000	408.391727	0.007959	
791.000000	408.504052	0.011950	
792.000000	408.616382	0.019629	
793.000000	408.728717	0.001660	
794.000000	408.841057	0.005349	
795.000000	408.953403	0.009490	
796.000000	409.065754	0.020909	
797.000000	409.178110	0.003743	
798.000000	409.290471	0.004948	
799.000000	409.402838	0.020683	
800.000000	409.515210	0.014208	
801.000000	409.627587	0.005952	
802.000000	409.739969	0.005274	
803.000000	409.852357	0.012953	
804.000000	409.964750	0.012100	
805.000000	410.077148	0.001937	
806.000000	410.189552	0.005274	
807.000000	410.301961	0.004722	
808.000000	410.414375	0.022991	
809.000000	410.526794	0.003693	
810.000000	410.639218	0.000180	
811.000000	410.751648	0.017496	
812.000000	410.864083	0.013229	
813.000000	410.976523	0.005600	
814.000000	411.088969	0.005349	
815.000000	411.201419	0.021461	
816.000000	411.313875	0.013305	
817.000000	411.426336	0.001585	
818.000000	411.538803	0.004948	
819.000000	411.651274	0.008336	
820.000000	411.763751	0.009038	
821.000000	411.876233	0.004521	
822.000000	411.988720	0.002991	
823.000000	412.101213	0.009892	
824.000000	412.213711	0.008035	
825.000000	412.326214	0.005826	
826.000000	412.438722	0.009465	
827.000000	412.551235	0.022063	
828.000000	412.663754	0.019629	
829.000000	412.776277	0.007884	
830.000000	412.888806	0.004245	
831.000000	413.001341	0.007934	
832.000000	413.113880	0.018173	
833.000000	413.226425	0.000682	
834.000000	413.338975	0.008913	
835.000000	413.451530	0.024296	
836.000000	413.564090	0.013029	
837.000000	413.676655	0.009917	
838.000000	413.789226	0.005500	
839.000000	413.901802	0.013706	
840.000000	414.014383	0.019077	
841.000000	414.126969	0.011197	
842.000000	414.239560	0.012251	
843.000000	414.352157	0.018750	
844.000000	414.464759	0.012552	
845.000000	414.577366	0.009540	
846.000000	414.689978	0.005876	
847.000000	414.802595	0.014308	
848.000000	414.915218	0.017997	
849.000000	415.027845	0.007984	
850.000000	415.140478	0.009490	
851.000000	415.253116	0.021586	
852.000000	415.365759	0.019503	
853.000000	415.478408	0.013756	
854.000000	415.591061	0.009992	
855.000000	415.703720	0.019478	
856.000000	415.816384	0.012276	
857.000000	415.929053	0.009816	
858.000000	416.041727	0.009992	
859.000000	416.154407	0.014409	
860.000000	416.267091	0.015162	
861.000000	416.379781	0.007307	
862.000000	416.492476	0.005626	
863.000000	416.605176	0.012351	
864.000000	416.717881	0.016015	
865.000000	416.830591	0.003417	
866.000000	416.943306	0.006429	
867.000000	417.056027	0.017972	
868.000000	417.168753	0.012326	
869.000000	417.281484	0.006755	
870.000000	417.394220	0.007658	
871.000000	417.506961	0.013857	
872.000000	417.619707	0.018399	
873.000000	417.732459	0.009013	
874.000000	417.845215	0.010770	
875.000000	417.957977	0.021661	
876.000000	418.070744	0.012853	
877.000000	418.183516	0.006403	
878.000000	418.296293	0.010193	
879.000000	418.409075	0.021109	
880.000000	418.521862	0.019302	
881.000000	418.634655	0.006178	
882.000000	418.747452	0.007759	
883.000000	418.860255	0.024171	
884.000000	418.973063	0.021009	
885.000000	419.085876	0.006403	
886.000000	419.198694	0.008788	
887.000000	419.311517	0.022891	
888.000000	419.424346	0.021963	
889.000000	419.537179	0.008160	
890.000000	419.650017	0.011523	
891.000000	419.762861	0.010795	
892.000000	419.875710	0.014359	
893.000000	419.988564	0.009189	
894.000000	420.101422	0.011297	
895.000000	420.214287	0.018123	
896.000000	420.327156	0.026003	
897.000000	420.440030	0.012401	
898.000000	420.552909	0.013179	
899.000000	420.665794	0.014409	
900.000000	420.778683	0.014559	
901.000000	420.891578	0.012828	
902.000000	421.004477	0.015212	
903.000000	421.117382	0.017922	
904.000000	421.230292	0.014459	
905.000000	421.343207	0.011423	
906.000000	421.456127	0.011046	
907.000000	421.569052	0.018801	
908.000000	421.681982	0.020658	
909.000000	421.794917	0.014083	
910.000000	421.907858	0.010394	
911.000000	422.020803	0.021511	
912.000000	422.133753	0.016768	
913.000000	422.246709	0.010896	
914.000000	422.359670	0.013330	
915.000000	422.472635	0.022690	
916.000000	422.585606	0.026480	
917.000000	422.698582	0.013004	
918.000000	422.811562	0.014760	
919.000000	422.924548	0.019930	
920.000000	423.037539	0.022213	
921.000000	423.150535	0.015137	
922.000000	423.263536	0.019855	
923.000000	423.376542	0.021486	
924.000000	423.489554	0.022640	
925.000000	423.602570	0.018324	
926.000000	423.715591	0.022188	
927.000000	423.828617	0.026555	
928.000000	423.941649	0.033205	
929.000000	424.054685	0.014058	
930.000000	424.167727	0.023569	
931.000000	424.280773	0.031072	
932.000000	424.393824	0.028111	
933.000000	424.506881	0.018474	
934.000000	424.619943	0.018374	
935.000000	424.733009	0.018826	
936.000000	424.846081	0.021260	
937.000000	424.959157	0.017370	
938.000000	425.072239	0.018600	
939.000000	425.185326	0.027082	
940.000000	425.298418	0.032904	
941.000000	425.411514	0.020482	
942.000000	425.524616	0.021109	
943.000000	425.637723	0.030645	
944.000000	425.750835	0.032477	
945.000000	425.863951	0.017772	
946.000000	425.977073	0.017546	
947.000000	426.090200	0.029190	
948.000000	426.203332	0.035338	
949.000000	426.316469	0.025200	
950.000000	426.429611	0.021887	
951.000000	426.542757	0.030093	
952.000000	426.655909	0.033632	
953.000000	426.769066	0.026630	
954.000000	426.882228	0.026706	
955.000000	426.995395	0.033807	
956.000000	427.108567	0.032327	
957.000000	427.221744	0.027483	
958.000000	427.334925	0.031674	
959.000000	427.448112	0.034084	
960.000000	427.561304	0.038074	
961.000000	427.674501	0.029968	
962.000000	427.787703	0.031800	
963.000000	427.900909	0.039755	
964.000000	428.014121	0.031223	
965.000000	428.127338	0.034435	
966.000000	428.240560	0.032904	
967.000000	428.353786	0.046129	
968.000000	428.467018	0.039830	
969.000000	428.580255	0.031800	
970.000000	428.693496	0.034109	
971.000000	428.806743	0.043846	
972.000000	428.919994	0.045301	
973.000000	429.033251	0.039504	
974.000000	429.146512	0.038425	
975.000000	429.259779	0.050646	
976.000000	429.373050	0.041763	
977.000000	429.486326	0.033983	
978.000000	429.599608	0.039052	
979.000000	429.712894	0.050797	
980.000000	429.826185	0.056067	
981.000000	429.939481	0.043369	
982.000000	430.052782	0.045025	
983.000000	430.166089	0.047911	
984.000000	430.279400	0.055364	
985.000000	430.392715	0.051500	
986.000000	430.506036	0.053733	
987.000000	430.619362	0.062893	
988.000000	430.732693	0.060559	
989.000000	430.846029	0.050973	
990.000000	430.959369	0.048463	
991.000000	431.072715	0.061237	
992.000000	431.186066	0.054059	
993.000000	431.299421	0.053281	
994.000000	431.412781	0.059430	
995.000000	431.526147	0.060408	
996.000000	431.639517	0.058050	
997.000000	431.752892	0.056469	
998.000000	431.866272	0.062240	
999.000000	431.979657	0.075691	
1000.000000	432.093047	0.062968	
1001.000000	432.206442	0.063370	
1002.000000	432.319842	0.068489	
1003.000000	432.433246	0.081187	
1004.000000	432.546656	0.067310	
1005.000000	432.660071	0.070120	
1006.000000	432.773490	0.079130	
1007.000000	432.886914	0.082668	
1008.000000	433.000344	0.071576	
1009.000000	433.113778	0.075441	
1010.000000	433.227217	0.080560	
1011.000000	433.340661	0.079431	
1012.000000	433.454110	0.074989	
1013.000000	433.567563	0.079205	
1014.000000	433.681022	0.087336	
1015.000000	433.794485	0.081413	
1016.000000	433.907954	0.078477	
1017.000000	434.021427	0.089143	
1018.000000	434.134905	0.094814	
1019.000000	434.248388	0.090924	
1020.000000	434.361876	0.087637	
1021.000000	434.475369	0.092957	
1022.000000	434.588867	0.093384	
1023.000000	434.702370	0.146259	
1024.000000	434.815877	0.093986	
1025.000000	434.929390	0.096044	
1026.000000	435.042907	0.096947	
1027.000000	435.156429	0.168293	
1028.000000	435.269956	0.100310	
1029.000000	435.383488	0.104601	
1030.000000	435.497025	0.113334	
1031.000000	435.610566	0.115191	
1032.000000	435.724113	0.107512	
1033.000000	435.837664	0.110022	
1034.000000	435.951220	0.121290	
1035.000000	436.064781	0.129521	
1036.000000	436.178347	0.118504	
1037.000000	436.291918	0.119357	
1038.000000	436.405493	0.138154	
1039.000000	436.519074	0.136849	
1040.000000	436.632659	0.124100	
1041.000000	436.746249	0.123950	
1042.000000	436.859844	0.132808	
1043.000000	436.973444	0.136171	
1044.000000	437.087049	0.136297	
1045.000000	437.200659	0.128693	
1046.000000	437.314273	0.142169	
1047.000000	437.427892	0.142520	
1048.000000	437.541516	0.129345	
1049.000000	437.655145	0.141065	
1050.000000	437.768779	0.144603	
1051.000000	437.882418	0.153386	
1052.000000	437.996061	0.140814	
1053.000000	438.109709	0.148769	
1054.000000	438.223362	0.167139	
1055.000000	438.337020	0.151329	
1056.000000	438.450683	0.154465	
1057.000000	438.564350	0.166762	
1058.000000	438.678023	0.170200	
1059.000000	438.791700	0.170125	
1060.000000	438.905382	0.160313	
1061.000000	439.019069	0.165633	
1062.000000	439.132760	0.173463	
1063.000000	439.246457	0.182497	
1064.000000	439.360158	0.175370	
1065.000000	439.473864	0.173538	
1066.000000	439.587575	0.184655	
1067.000000	439.701291	0.193689	
1068.000000	439.815011	0.179159	
1069.000000	439.928736	0.184881	
1070.000000	440.042467	0.188118	
1071.000000	440.156201	0.188721	
1072.000000	440.269941	0.187867	
1073.000000	440.383686	0.193991	
1074.000000	440.497435	0.201921	
1075.000000	440.611189	0.208596	
1076.000000	440.724948	0.200239	
1077.000000	440.838711	0.201243	
1078.000000	440.952480	0.207266	
1079.000000	441.066253	0.209098	
1080.000000	441.180031	0.208094	
1081.000000	441.293814	0.212210	
1082.000000	441.407601	0.219236	
1083.000000	441.521394	0.222599	
1084.000000	441.635191	0.218835	
1085.000000	441.748993	0.221696	
1086.000000	441.862799	0.232085	
1087.000000	441.976611	0.230906	
1088.000000	442.090427	0.229626	
1089.000000	442.204248	0.225109	
1090.000000	442.318073	0.236778	
1091.000000	442.431904	0.249953	
1092.000000	442.545739	0.235975	
1093.000000	442.659579	0.238710	
1094.000000	442.773424	0.255449	
1095.000000	442.887273	0.254897	
1096.000000	443.001128	0.255097	
1097.000000	443.114987	0.258084	
1098.000000	443.228851	0.271786	
1099.000000	443.342719	0.276428	
1100.000000	443.456592	0.264006	
1101.000000	443.570470	0.269703	
1102.000000	443.684353	0.281774	
1103.000000	443.798241	0.281171	
1104.000000	443.912133	0.273819	
1105.000000	444.026030	0.285889	
1106.000000	444.139932	0.293970	
1107.000000	444.253838	0.298061	
1108.000000	444.367749	0.293142	
1109.000000	444.481665	0.294045	
1110.000000	444.595586	0.293895	
1111.000000	444.709511	0.309906	
1112.000000	444.823442	0.301549	
1113.000000	444.937376	0.306367	
1114.000000	445.051316	0.319693	
1115.000000	445.165260	0.321299	
1116.000000	445.279209	0.312139	
1117.000000	445.393163	0.323081	
1118.000000	445.507122	0.334223	
1119.000000	445.621085	0.332140	
1120.000000	445.735053	0.332868	
1121.000000	445.849025	0.329154	
1122.000000	445.963003	0.346043	
1123.000000	446.076985	0.341400	
1124.000000	446.190971	0.348377	
1125.000000	446.304963	0.348301	
1126.000000	446.418959	0.364212	
1127.000000	446.532960	0.371539	
1128.000000	446.646965	0.356256	
1129.000000	446.760976	0.354148	
1130.000000	446.874991	0.377387	
1131.000000	446.989010	0.381176	
1132.000000	447.103035	0.367625	
1133.000000	447.217064	0.374099	
1134.000000	447.331097	0.398115	
1135.000000	447.445136	0.390762	
1136.000000	447.559179	0.379796	
1137.000000	447.673227	0.399571	
1138.000000	447.787279	0.410362	
1139.000000	447.901336	0.407476	
1140.000000	448.015398	0.398065	
1141.000000	448.129465	0.411240	
1142.000000	448.243536	0.428681	
1143.000000	448.357612	0.424541	
1144.000000	448.471692	0.421906	
1145.000000	448.585778	0.427903	
1146.000000	448.699867	0.454655	
1147.000000	448.813962	0.450916	
1148.000000	448.928061	0.447302	
1149.000000	449.042165	0.438268	
1150.000000	449.156274	0.463012	
1151.000000	449.270387	0.450690	
1152.000000	449.384505	0.455232	
1153.000000	449.498627	0.465822	
1154.000000	449.612754	0.473376	
1155.000000	449.726886	0.479048	
1156.000000	449.841023	0.468633	
1157.000000	449.955164	0.473351	
1158.000000	450.069310	0.491972	
1159.000000	450.183460	0.492047	
1160.000000	450.297615	0.487630	
1161.000000	450.411775	0.496112	
1162.000000	450.525939	0.505272	
1163.000000	450.640108	0.517343	
1164.000000	450.754282	0.505122	
1165.000000	450.868460	0.514106	
1166.000000	450.982643	0.518422	
1167.000000	451.096831	0.527908	
1168.000000	451.211023	0.520605	
1169.000000	451.325220	0.529865	
1170.000000	451.439421	0.534634	
1171.000000	451.553627	0.540983	
1172.000000	451.667838	0.533805	
1173.000000	451.782053	0.539502	
1174.000000	451.896273	0.559327	
1175.000000	452.010498	0.548737	
1176.000000	452.124727	0.549741	
1177.000000	452.238961	0.540581	
1178.000000	452.353199	0.553806	
1179.000000	452.467442	0.564070	
1180.000000	452.581690	0.562489	
1181.000000	452.695942	0.559051	
1182.000000	452.810199	0.563619	
1183.000000	452.924461	0.575187	
1184.000000	453.038727	0.569742	
1185.000000	453.152997	0.573105	
1186.000000	453.267273	0.580533	
1187.000000	453.381553	0.579705	
1188.000000	453.495837	0.582565	
1189.000000	453.610126	0.578400	
1190.000000	453.724420	0.580633	
1191.000000	453.838718	0.584975	
1192.000000	453.953021	0.582917	
1193.000000	454.067328	0.581938	
1194.000000	454.181641	0.595665	
1195.000000	454.295957	0.591750	
1196.000000	454.410278	0.586330	
1197.000000	454.524604	0.584297	
1198.000000	454.638935	0.596468	
1199.000000	454.753269	0.596368	
1200.000000	454.867609	0.588889	
1201.000000	454.981953	0.586154	
1202.000000	455.096302	0.589693	
1203.000000	455.210655	0.599706	
1204.000000	455.325013	0.589642	
1205.000000	455.439375	0.585451	
1206.000000	455.553742	0.603871	
1207.000000	455.668114	0.595063	
1208.000000	455.782490	0.583243	
1209.000000	455.896871	0.585577	
1210.000000	456.011256	0.599455	
1211.000000	456.125646	0.594762	
1212.000000	456.240040	0.589617	
1213.000000	456.354439	0.572979	
1214.000000	456.468842	0.584924	
1215.000000	456.583250	0.590922	
1216.000000	456.697663	0.570695	
1217.000000	456.812080	0.565626	
1218.000000	456.926502	0.582038	
1219.000000	457.040928	0.578876	
1220.000000	457.155358	0.555688	
1221.000000	457.269794	0.558349	
1222.000000	457.384234	0.570118	
1223.000000	457.498678	0.563192	
1224.000000	457.613127	0.545952	
1225.000000	457.727580	0.545475	
1226.000000	457.842038	0.557019	
1227.000000	457.956501	0.551046	
1228.000000	458.070968	0.539552	
1229.000000	458.185439	0.531396	
1230.000000	458.299915	0.541761	
1231.000000	458.414396	0.543718	
1232.000000	458.528881	0.532500	
1233.000000	458.643371	0.525675	
1234.000000	458.757865	0.541359	
1235.000000	458.872364	0.536967	
1236.000000	458.986867	0.515411	
1237.000000	459.101374	0.512198	
1238.000000	459.215887	0.514281	
1239.000000	459.330403	0.523592	
1240.000000	459.444925	0.505398	
1241.000000	459.559450	0.503766	
1242.000000	459.673981	0.505598	
1243.000000	459.788515	0.509036	
1244.000000	459.903055	0.490391	
1245.000000	460.017599	0.492248	
1246.000000	460.132147	0.483740	
1247.000000	460.246700	0.493251	
1248.000000	460.361257	0.468332	
1249.000000	460.475819	0.481532	
1250.000000	460.590385	0.477241	
1251.000000	460.704956	0.459599	
1252.000000	460.819531	0.458244	
1253.000000	460.934111	0.466475	
1254.000000	461.048695	0.456286	
1255.000000	461.163283	0.447904	
1256.000000	461.277877	0.443136	
1257.000000	461.392474	0.466826	
1258.000000	461.507076	0.452547	
1259.000000	461.621683	0.433525	
1260.000000	461.736294	0.442158	
1261.000000	461.850910	0.439272	
1262.000000	461.965530	0.443764	
1263.000000	462.080154	0.422056	
1264.000000	462.194783	0.427979	
1265.000000	462.309416	0.437716	
1266.000000	462.424054	0.432320	
1267.000000	462.538697	0.420751	
1268.000000	462.653344	0.416937	
1269.000000	462.767995	0.438820	
1270.000000	462.882651	0.424666	
1271.000000	462.997311	0.410186	
1272.000000	463.111975	0.410211	
1273.000000	463.226645	0.414227	
1274.000000	463.341318	0.409283	
1275.000000	463.455996	0.400700	
1276.000000	463.570679	0.402356	
1277.000000	463.685365	0.411968	
1278.000000	463.800057	0.405493	
1279.000000	463.914753	0.399772	
1280.000000	464.029453	0.395330	
1281.000000	464.144157	0.405242	
1282.000000	464.258867	0.400248	
1283.000000	464.373580	0.395179	
1284.000000	464.488298	0.391189	
1285.000000	464.603020	0.406045	
1286.000000	464.717747	0.400575	
1287.000000	464.832479	0.386797	
1288.000000	464.947214	0.381753	
1289.000000	465.061954	0.400650	
1290.000000	465.176699	0.389909	
1291.000000	465.291448	0.386120	
1292.000000	465.406201	0.374576	
1293.000000	465.520959	0.392594	
1294.000000	465.635721	0.387199	
1295.000000	465.750488	0.370912	
1296.000000	465.865259	0.373823	
1297.000000	465.980034	0.381954	
1298.000000	466.094814	0.379244	
1299.000000	466.209599	0.379219	
1300.000000	466.324387	0.362455	
1301.000000	466.439180	0.377136	
1302.000000	466.553978	0.372493	
1303.000000	466.668780	0.368980	
1304.000000	466.783586	0.360272	
1305.000000	466.898397	0.377587	
1306.000000	467.013212	0.374049	
1307.000000	467.128031	0.359971	
1308.000000	467.242855	0.364588	
1309.000000	467.357684	0.379545	
1310.000000	467.472516	0.366646	
1311.000000	467.587353	0.361803	
1312.000000	467.702195	0.354600	
1313.000000	467.817041	0.363860	
1314.000000	467.931891	0.360573	
1315.000000	468.046745	0.359569	
1316.000000	468.161604	0.356432	
1317.000000	468.276468	0.358314	
1318.000000	468.391335	0.360247	
1319.000000	468.506207	0.360347	
1320.000000	468.621084	0.345365	
1321.000000	468.735965	0.355529	
1322.000000	468.850850	0.360673	
1323.000000	468.965740	0.342705	
1324.000000	469.080633	0.341124	
1325.000000	469.195532	0.352317	
1326.000000	469.310434	0.346946	
1327.000000	469.425341	0.340221	
1328.000000	469.540253	0.336155	
1329.000000	469.655169	0.345641	
1330.000000	469.770089	0.342755	
1331.000000	469.885013	0.335979	
1332.000000	469.999942	0.332918	
1333.000000	470.114875	0.339894	
1334.000000	470.229813	0.335001	
1335.000000	470.344754	0.330333	
1336.000000	470.459701	0.321073	
1337.000000	470.574651	0.328049	
1338.000000	470.689606	0.331136	
1339.000000	470.804565	0.319517	
1340.000000	470.919529	0.317484	
1341.000000	471.034497	0.317007	
1342.000000	471.149469	0.336306	
1343.000000	471.264446	0.303657	
1344.000000	471.379427	0.309052	
1345.000000	471.494412	0.316706	
1346.000000	471.609401	0.308249	
1347.000000	471.724395	0.308450	
1348.000000	471.839393	0.291084	
1349.000000	471.954396	0.299240	
1350.000000	472.069403	0.312541	
1351.000000	472.184414	0.288374	
1352.000000	472.299429	0.287746	
1353.000000	472.414449	0.299516	
1354.000000	472.529473	0.289302	
1355.000000	472.644502	0.280745	
1356.000000	472.759535	0.289654	
1357.000000	472.874572	0.283781	
1358.000000	472.989613	0.276930	
1359.000000	473.104659	0.276629	
1360.000000	473.219709	0.269251	
1361.000000	473.334763	0.271108	
1362.000000	473.449821	0.274019	
1363.000000	473.564884	0.265562	
1364.000000	473.679952	0.263479	
1365.000000	473.795023	0.268523	
1366.000000	473.910099	0.270481	
1367.000000	474.025179	0.259715	
1368.000000	474.140263	0.254746	
1369.000000	474.255352	0.256227	
1370.000000	474.370445	0.263379	
1371.000000	474.485542	0.242424	
1372.000000	474.600643	0.245486	
1373.000000	474.715749	0.252287	
1374.000000	474.830859	0.262475	
1375.000000	474.945974	0.236402	
1376.000000	475.061092	0.240919	
1377.000000	475.176215	0.241295	
1378.000000	475.291342	0.235297	
1379.000000	475.406474	0.225435	
1380.000000	475.521609	0.226112	
1381.000000	475.636749	0.234595	
1382.000000	475.751894	0.232637	
1383.000000	475.867042	0.224456	
1384.000000	475.982195	0.222047	
1385.000000	476.097352	0.221520	
1386.000000	476.212513	0.220868	
1387.000000	476.327679	0.209098	
1388.000000	476.442849	0.204631	
1389.000000	476.558023	0.213013	
1390.000000	476.673201	0.213715	
1391.000000	476.788383	0.199210	
1392.000000	476.903570	0.207442	
1393.000000	477.018761	0.204505	
1394.000000	477.133957	0.208747	
1395.000000	477.249156	0.191883	
1396.000000	477.364360	0.192159	
1397.000000	477.479568	0.207517	
1398.000000	477.594780	0.190854	
1399.000000	477.709997	0.187917	
1400.000000	477.825218	0.185107	
1401.000000	477.940443	0.184203	
1402.000000	478.055672	0.197203	
1403.000000	478.170905	0.179636	
1404.000000	478.286143	0.178808	
1405.000000	478.401385	0.188821	
1406.000000	478.516631	0.194216	
1407.000000	478.631881	0.174040	
1408.000000	478.747136	0.178431	
1409.000000	478.862395	0.180765	
1410.000000	478.977658	0.180640	
1411.000000	479.092925	0.170426	
1412.000000	479.208196	0.161693	
1413.000000	479.323472	0.167013	
1414.000000	479.438752	0.173362	
1415.000000	479.554036	0.165959	
1416.000000	479.669324	0.161969	
1417.000000	479.784617	0.165884	
1418.000000	479.899913	0.175520	
1419.000000	480.015214	0.157502	
1420.000000	480.130519	0.160037	
1421.000000	480.245829	0.165558	
1422.000000	480.361142	0.165708	
1423.000000	480.476460	0.155168	
1424.000000	480.591782	0.146109	
1425.000000	480.707108	0.159133	
1426.000000	480.822438	0.154365	
1427.000000	480.937773	0.153211	
1428.000000	481.053111	0.147941	
1429.000000	481.168454	0.162722	
1430.000000	481.283801	0.158180	
1431.000000	481.399152	0.139459	
1432.000000	481.514508	0.143298	
1433.000000	481.629867	0.155168	
1434.000000	481.745231	0.155093	
1435.000000	481.860599	0.142094	
1436.000000	481.975971	0.141592	
1437.000000	482.091347	0.155971	
1438.000000	482.206728	0.166110	
1439.000000	482.322112	0.140939	
1440.000000	482.437501	0.131980	
1441.000000	482.552894	0.146109	
1442.000000	482.668291	0.142570	
1443.000000	482.783693	0.135895	
1444.000000	482.899098	0.133611	
1445.000000	483.014508	0.156197	
1446.000000	483.129921	0.142244	
1447.000000	483.245339	0.138028	
1448.000000	483.360761	0.135744	
1449.000000	483.476187	0.145381	
1450.000000	483.591618	0.148970	
1451.000000	483.707052	0.127237	
1452.000000	483.822491	0.132131	
1453.000000	483.937934	0.140939	
1454.000000	484.053381	0.147966	
1455.000000	484.168832	0.129822	
1456.000000	484.284287	0.129295	
1457.000000	484.399746	0.142043	
1458.000000	484.515210	0.138254	
1459.000000	484.630678	0.130424	
1460.000000	484.746149	0.127212	
1461.000000	484.861625	0.127714	
1462.000000	484.977105	0.136648	
1463.000000	485.092589	0.128668	
1464.000000	485.208078	0.130801	
1465.000000	485.323570	0.146661	
1466.000000	485.439067	0.140713	
1467.000000	485.554567	0.123724	
1468.000000	485.670072	0.130750	
1469.000000	485.785581	0.132156	
1470.000000	485.901094	0.134916	
1471.000000	486.016611	0.125907	
1472.000000	486.132132	0.125957	
1473.000000	486.247658	0.133561	
1474.000000	486.363187	0.135694	
1475.000000	486.478721	0.125305	
1476.000000	486.594258	0.124928	
1477.000000	486.709800	0.123247	
1478.000000	486.825346	0.132281	
1479.000000	486.940896	0.128919	
1480.000000	487.056450	0.123874	
1481.000000	487.172008	0.128743	
1482.000000	487.287571	0.125581	
1483.000000	487.403137	0.127714	
1484.000000	487.518707	0.130750	
1485.000000	487.634282	0.136372	
1486.000000	487.749861	0.138304	
1487.000000	487.865443	0.121515	
1488.000000	487.981030	0.126484	
1489.000000	488.096621	0.132382	
1490.000000	488.212216	0.138932	
1491.000000	488.327815	0.125706	
1492.000000	488.443418	0.120737	
1493.000000	488.559025	0.146259	
1494.000000	488.674637	0.134439	
1495.000000	488.790252	0.128090	
1496.000000	488.905872	0.128592	
1497.000000	489.021495	0.142420	
1498.000000	489.137123	0.141717	
1499.000000	489.252754	0.128191	
1500.000000	489.368390	0.121340	
1501.000000	489.484030	0.140011	
1502.000000	489.599674	0.134891	
1503.000000	489.715321	0.128893	
1504.000000	489.830973	0.151680	
1505.000000	489.946629	0.152232	
1506.000000	490.062289	0.133310	
1507.000000	490.177954	0.132608	
1508.000000	490.293622	0.136698	
1509.000000	490.409294	0.143750	
1510.000000	490.524970	0.128919	
1511.000000	490.640651	0.134414	
1512.000000	490.756335	0.147238	
1513.000000	490.872023	0.145783	
1514.000000	490.987716	0.134138	
1515.000000	491.103412	0.134866	
1516.000000	491.219113	0.154114	
1517.000000	491.334817	0.148141	
1518.000000	491.450526	0.139835	
1519.000000	491.566238	0.137827	
1520.000000	491.681955	0.152784	
1521.000000	491.797676	0.144402	
1522.000000	491.913400	0.138028	
1523.000000	492.029129	0.134189	
1524.000000	492.144862	0.154641	
1525.000000	492.260599	0.145331	
1526.000000	492.376339	0.136673	
1527.000000	492.492084	0.149848	
1528.000000	492.607833	0.156649	
1529.000000	492.723586	0.166938	
1530.000000	492.839343	0.147589	
1531.000000	492.955104	0.149522	
1532.000000	493.070869	0.163199	
1533.000000	493.186637	0.158556	
1534.000000	493.302410	0.150802	
1535.000000	493.418187	0.148066	
1536.000000	493.533968	0.163525	
1537.000000	493.649753	0.171756	
1538.000000	493.765542	0.148844	
1539.000000	493.881335	0.152583	
1540.000000	493.997132	0.169222	
1541.000000	494.112933	0.171380	
1542.000000	494.228738	0.154641	
1543.000000	494.344546	0.154189	
1544.000000	494.460359	0.163424	
1545.000000	494.576176	0.159535	
1546.000000	494.691997	0.156573	
1547.000000	494.807822	0.161894	
1548.000000	494.923651	0.176600	
1549.000000	495.039483	0.175872	
1550.000000	495.155320	0.168218	
1551.000000	495.271161	0.170100	
1552.000000	495.387006	0.176976	
1553.000000	495.502854	0.189072	
1554.000000	495.618707	0.169046	
1555.000000	495.734564	0.170125	
1556.000000	495.850424	0.188118	
1557.000000	495.966289	0.184856	
1558.000000	496.082157	0.177879	
1559.000000	496.198030	0.177252	
1560.000000	496.313906	0.189925	
1561.000000	496.429787	0.200565	
1562.000000	496.545671	0.184831	
1563.000000	496.661560	0.185408	
1564.000000	496.777452	0.193714	
1565.000000	496.893348	0.205032	
1566.000000	497.009248	0.190201	
1567.000000	497.125153	0.192485	
1568.000000	497.241061	0.206337	
1569.000000	497.356973	0.208947	
1570.000000	497.472889	0.200139	
1571.000000	497.588809	0.203677	
1572.000000	497.704733	0.203577	
1573.000000	497.820660	0.211105	
1574.000000	497.936592	0.200013	
1575.000000	498.052528	0.204455	
1576.000000	498.168467	0.216626	
1577.000000	498.284411	0.218132	
1578.000000	498.400359	0.211105	
1579.000000	498.516310	0.209550	
1580.000000	498.632265	0.229902	
1581.000000	498.748225	0.222950	
1582.000000	498.864188	0.212586	
1583.000000	498.980155	0.212009	
1584.000000	499.096126	0.230078	
1585.000000	499.212101	0.232913	
1586.000000	499.328080	0.221344	
1587.000000	499.444063	0.227668	
1588.000000	499.560049	0.234268	
1589.000000	499.676040	0.243002	
1590.000000	499.792035	0.229927	
1591.000000	499.908033	0.229827	
1592.000000	500.024035	0.242826	
1593.000000	500.140042	0.253642	
1594.000000	500.256052	0.240492	
1595.000000	500.372066	0.240793	
1596.000000	500.488084	0.248246	
1597.000000	500.604106	0.263329	
1598.000000	500.720132	0.252513	
1599.000000	500.836161	0.250254	
1600.000000	500.952195	0.266089	
1601.000000	501.068232	0.266365	
1602.000000	501.184274	0.255474	
1603.000000	501.300319	0.256377	
1604.000000	501.416368	0.279365	
1605.000000	501.532421	0.275676	
1606.000000	501.648478	0.266164	
1607.000000	501.764539	0.265688	
1608.000000	501.880603	0.275400	
1609.000000	501.996672	0.287169	
1610.000000	502.112744	0.273969	
1611.000000	502.228821	0.279440	
1612.000000	502.344901	0.301097	
1613.000000	502.460985	0.295877	
1614.000000	502.577073	0.277834	
1615.000000	502.693164	0.282978	
1616.000000	502.809260	0.298437	
1617.000000	502.925360	0.302226	
1618.000000	503.041463	0.289453	
1619.000000	503.157570	0.292339	
1620.000000	503.273681	0.305740	
1621.000000	503.389796	0.307547	
1622.000000	503.505915	0.299265	
1623.000000	503.622038	0.299867	
1624.000000	503.738164	0.312641	
1625.000000	503.854295	0.315527	
1626.000000	503.970429	0.307346	
1627.000000	504.086567	0.312917	
1628.000000	504.202709	0.320998	
1629.000000	504.318854	0.315326	
1630.000000	504.435004	0.316054	
1631.000000	504.551158	0.314824	
1632.000000	504.667315	0.333169	
1633.000000	504.783476	0.333846	
1634.000000	504.899641	0.319919	
1635.000000	505.015810	0.326268	
1636.000000	505.131982	0.340873	
1637.000000	505.248159	0.347297	
1638.000000	505.364339	0.326594	
1639.000000	505.480523	0.333269	
1640.000000	505.596711	0.358590	
1641.000000	505.712903	0.353772	
1642.000000	505.829098	0.343859	
1643.000000	505.945298	0.347423	
1644.000000	506.061501	0.363584	
1645.000000	506.177708	0.355127	
1646.000000	506.293919	0.349004	
1647.000000	506.410133	0.347348	
1648.000000	506.526352	0.359895	
1649.000000	506.642574	0.364965	
1650.000000	506.758800	0.360222	
1651.000000	506.875030	0.359268	
1652.000000	506.991264	0.377838	
1653.000000	507.107501	0.370762	
1654.000000	507.223743	0.365266	
1655.000000	507.339988	0.368603	
1656.000000	507.456237	0.375505	
1657.000000	507.572489	0.392544	
1658.000000	507.688746	0.369858	
1659.000000	507.805006	0.371790	
1660.000000	507.921270	0.387324	
1661.000000	508.037538	0.390762	
1662.000000	508.153810	0.374877	
1663.000000	508.270085	0.382330	
1664.000000	508.386364	0.392419	
1665.000000	508.502647	0.397864	
1666.000000	508.618934	0.380097	
1667.000000	508.735225	0.382004	
1668.000000	508.851519	0.392394	
1669.000000	508.967817	0.399621	
1670.000000	509.084119	0.388178	
1671.000000	509.200425	0.392268	
1672.000000	509.316734	0.406497	
1673.000000	509.433047	0.399119	
1674.000000	509.549364	0.395957	
1675.000000	509.665685	0.394577	
1676.000000	509.782010	0.411767	
1677.000000	509.898338	0.411642	
1678.000000	510.014670	0.400449	
1679.000000	510.131006	0.397112	
1680.000000	510.247345	0.419246	
1681.000000	510.363689	0.419396	
1682.000000	510.480036	0.406472	
1683.000000	510.596386	0.402105	
1684.000000	510.712741	0.436662	
1685.000000	510.829099	0.423462	
1686.000000	510.945461	0.412470	
1687.000000	511.061827	0.412696	
1688.000000	511.178197	0.431919	
1689.000000	511.294570	0.428957	
1690.000000	511.410947	0.419421	
1691.000000	511.527328	0.412445	
1692.000000	511.643712	0.437339	
1693.000000	511.760100	0.438895	
1694.000000	511.876492	0.421379	
1695.000000	511.992888	0.423637	
1696.000000	512.109288	0.429886	
1697.000000	512.225691	0.433550	
1698.000000	512.342098	0.426071	
1699.000000	512.458508	0.433048	
1700.000000	512.574923	0.443462	
1701.000000	512.691341	0.451593	
1702.000000	512.807762	0.431743	
1703.000000	512.924188	0.426222	
1704.000000	513.040617	0.437942	
1705.000000	513.157050	0.458971	
1706.000000	513.273487	0.435231	
1707.000000	513.389927	0.437364	
1708.000000	513.506371	0.461958	
1709.000000	513.622819	0.451367	
1710.000000	513.739270	0.441204	
1711.000000	513.855725	0.442810	
1712.000000	513.972184	0.449987	
1713.000000	514.088647	0.461631	
1714.000000	514.205113	0.441781	
1715.000000	514.321583	0.448682	
1716.000000	514.438057	0.464542	
1717.000000	514.554534	0.468156	
1718.000000	514.671015	0.451468	
1719.000000	514.787500	0.453526	
1720.000000	514.903988	0.471820	
1721.000000	515.020480	0.460326	
1722.000000	515.136976	0.448808	
1723.000000	515.253476	0.448381	
1724.000000	515.369979	0.461355	
1725.000000	515.486486	0.469060	
1726.000000	515.602996	0.448983	
1727.000000	515.719511	0.456663	
1728.000000	515.836028	0.476212	
1729.000000	515.952550	0.464492	
1730.000000	516.069075	0.457541	
1731.000000	516.185604	0.457616	
1732.000000	516.302137	0.468758	
1733.000000	516.418673	0.474154	
1734.000000	516.535213	0.454630	
1735.000000	516.651756	0.466174	
1736.000000	516.768304	0.472724	
1737.000000	516.884854	0.476413	
1738.000000	517.001409	0.458846	
1739.000000	517.117967	0.461882	
1740.000000	517.234529	0.479399	
1741.000000	517.351095	0.464718	
1742.000000	517.467664	0.467930	
1743.000000	517.584236	0.467303	
1744.000000	517.700813	0.479098	
1745.000000	517.817393	0.474581	
1746.000000	517.933977	0.465521	
1747.000000	518.050564	0.462911	
1748.000000	518.167155	0.467930	
1749.000000	518.283750	0.469361	
1750.000000	518.400348	0.466023	
1751.000000	518.516950	0.472598	
1752.000000	518.633556	0.488308	
1753.000000	518.750165	0.482711	
1754.000000	518.866778	0.462384	
1755.000000	518.983394	0.470565	
1756.000000	519.100014	0.480654	
1757.000000	519.216638	0.479098	
1758.000000	519.333265	0.465847	
1759.000000	519.449896	0.469235	
1760.000000	519.566531	0.478847	
1761.000000	519.683169	0.471494	
1762.000000	519.799811	0.477667	
1763.000000	519.916456	0.500479	
1764.000000	520.033105	0.488935	
1765.000000	520.149758	0.476061	
1766.000000	520.266414	0.473903	
1767.000000	520.383074	0.489136	
1768.000000	520.499738	0.493101	
1769.000000	520.616405	0.478194	
1770.000000	520.733075	0.475810	
1771.000000	520.849750	0.483389	
1772.000000	520.966428	0.492649	
1773.000000	521.083109	0.480980	
1774.000000	521.199794	0.485823	
1775.000000	521.316483	0.496363	
1776.000000	521.433175	0.495083	
1777.000000	521.549871	0.475735	
1778.000000	521.666570	0.478847	
1779.000000	521.783274	0.497894	
1780.000000	521.899980	0.499952	
1781.000000	522.016690	0.489713	
1782.000000	522.133404	0.483665	
1783.000000	522.250122	0.488709	
1784.000000	522.366843	0.506652	
1785.000000	522.483567	0.480578	
1786.000000	522.600295	0.489387	
1787.000000	522.717027	0.484594	
1788.000000	522.833762	0.506426	
1789.000000	522.950501	0.490993	
1790.000000	523.067243	0.482988	
1791.000000	523.183989	0.508284	
1792.000000	523.300739	0.504645	
1793.000000	523.417492	0.496589	
1794.000000	523.534249	0.498722	
1795.000000	523.651009	0.499626	
1796.000000	523.767773	0.516239	
1797.000000	523.884540	0.493979	
1798.000000	524.001311	0.485497	
1799.000000	524.118085	0.509538	
1800.000000	524.234863	0.506527	
1801.000000	524.351645	0.498672	
1802.000000	524.468430	0.495184	
1803.000000	524.585219	0.511220	
1804.000000	524.702011	0.503189	
1805.000000	524.818807	0.501784	
1806.000000	524.935606	0.499023	
1807.000000	525.052409	0.509538	
1808.000000	525.169215	0.512901	
1809.000000	525.286025	0.503264	
1810.000000	525.402838	0.502436	
1811.000000	525.519655	0.514633	
1812.000000	525.636476	0.519150	
1813.000000	525.753300	0.505147	
1814.000000	525.870127	0.505498	
1815.000000	525.986958	0.509639	
1816.000000	526.103793	0.510868	
1817.000000	526.220631	0.515210	
1818.000000	526.337473	0.507506	
1819.000000	526.454318	0.525373	
1820.000000	526.571167	0.519777	
1821.000000	526.688019	0.509488	
1822.000000	526.804874	0.506552	
1823.000000	526.921734	0.531020	
1824.000000	527.038596	0.530894	
1825.000000	527.155463	0.522889	
1826.000000	527.272332	0.514256	
1827.000000	527.389206	0.536014	
1828.000000	527.506082	0.568863	
1829.000000	527.622963	0.520480	
1830.000000	527.739846	0.524319	
1831.000000	527.856734	0.540205	
1832.000000	527.973624	0.531421	
1833.000000	528.090519	0.528259	
1834.000000	528.207416	0.523817	
1835.000000	528.324318	0.537419	
1836.000000	528.441222	0.539502	
1837.000000	528.558131	0.526402	
1838.000000	528.675042	0.526653	
1839.000000	528.791958	0.547583	
1840.000000	528.908876	0.545098	
1841.000000	529.025798	0.541259	
1842.000000	529.142724	0.533931	
1843.000000	529.259653	0.555237	
1844.000000	529.376586	0.551347	
1845.000000	529.493522	0.537645	
1846.000000	529.610461	0.538548	
1847.000000	529.727404	0.553606	
1848.000000	529.844351	0.556818	
1849.000000	529.961301	0.543969	
1850.000000	530.078254	0.551372	
1851.000000	530.195211	0.556441	
1852.000000	530.312171	0.562138	
1853.000000	530.429135	0.553857	
1854.000000	530.546103	0.549891	
1855.000000	530.663073	0.559277	
1856.000000	530.780047	0.567960	
1857.000000	530.897025	0.559980	
1858.000000	531.014006	0.558399	
1859.000000	531.130991	0.580131	
1860.000000	531.247979	0.587635	
1861.000000	531.364970	0.564045	
1862.000000	531.481965	0.568261	
1863.000000	531.598963	0.580207	
1864.000000	531.715965	0.568060	
1865.000000	531.832970	0.563267	
1866.000000	531.949979	0.563317	
1867.000000	532.066991	0.597221	
1868.000000	532.184007	0.579730	
1869.000000	532.301026	0.572427	
1870.000000	532.418048	0.573682	
1871.000000	532.535074	0.598275	
1872.000000	532.652103	0.593758	
1873.000000	532.769136	0.585175	
1874.000000	532.886172	0.584598	
1875.000000	533.003211	0.608112	
1876.000000	533.120254	0.589793	
1877.000000	533.237301	0.585125	
1878.000000	533.354351	0.586480	
1879.000000	533.471404	0.608062	
1880.000000	533.588460	0.608389	
1881.000000	533.705520	0.591349	
1882.000000	533.822584	0.589517	
1883.000000	533.939651	0.612881	
1884.000000	534.056721	0.613985	
1885.000000	534.173795	0.599630	
1886.000000	534.290872	0.601236	
1887.000000	534.407952	0.624173	
1888.000000	534.525036	0.623421	
1889.000000	534.642123	0.609417	
1890.000000	534.759214	0.616243	
1891.000000	534.876308	0.624424	
1892.000000	534.993406	0.631802	
1893.000000	535.110506	0.617272	
1894.000000	535.227611	0.620284	
1895.000000	535.344718	0.636746	
1896.000000	535.461829	0.624399	
1897.000000	535.578944	0.626608	
1898.000000	535.696062	0.625453	
1899.000000	535.813183	0.648767	
1900.000000	535.930307	0.639808	
1901.000000	536.047435	0.632179	
1902.000000	536.164567	0.627210	
1903.000000	536.281701	0.658554	
1904.000000	536.398839	0.649143	
1905.000000	536.515981	0.641640	
1906.000000	536.633126	0.635642	
1907.000000	536.750274	0.660612	
1908.000000	536.867425	0.669245	
1909.000000	536.984580	0.642167	
1910.000000	537.101739	0.646935	
1911.000000	537.218900	0.666384	
1912.000000	537.336065	0.660662	
1913.000000	537.453234	0.647035	
1914.000000	537.570405	0.654112	
1915.000000	537.687580	0.668015	
1916.000000	537.804759	0.677225	
1917.000000	537.921941	0.664527	
1918.000000	538.039126	0.657098	
1919.000000	538.156314	0.682896	
1920.000000	538.273506	0.687363	
1921.000000	538.390701	0.668642	
1922.000000	538.507900	0.667563	
1923.000000	538.625102	0.687087	
1924.000000	538.742307	0.698355	
1925.000000	538.859515	0.676673	
1926.000000	538.976727	0.686460	
1927.000000	539.093942	0.692934	
1928.000000	539.211161	0.703048	
1929.000000	539.328383	0.688116	
1930.000000	539.445608	0.690350	
1931.000000	539.562837	0.705256	
1932.000000	539.680068	0.704202	
1933.000000	539.797304	0.694214	
1934.000000	539.914542	0.694892	
1935.000000	540.031784	0.715068	
1936.000000	540.149029	0.718281	
1937.000000	540.266278	0.705331	
1938.000000	540.383529	0.699133	
1939.000000	540.500784	0.711906	
1940.000000	540.618043	0.727240	
1941.000000	540.735305	0.709999	
1942.000000	540.852570	0.716976	
1943.000000	540.969838	0.721894	
1944.000000	541.087110	0.734668	
1945.000000	541.204385	0.721141	
1946.000000	541.321663	0.716173	
1947.000000	541.438944	0.745835	
1948.000000	541.556229	0.740465	
1949.000000	541.673517	0.730452	
1950.000000	541.790809	0.729172	
1951.000000	541.908104	0.741644	
1952.000000	542.025402	0.750277	
1953.000000	542.142703	0.733438	
1954.000000	542.260008	0.736701	
1955.000000	542.377315	0.756727	
1956.000000	542.494627	0.750729	
1957.000000	542.611941	0.746488	
1958.000000	542.729259	0.743276	
1959.000000	542.846580	0.772436	
1960.000000	542.963904	0.763201	
1961.000000	543.081232	0.761118	
1962.000000	543.198563	0.751381	
1963.000000	543.315897	0.762674	
1964.000000	543.433234	0.772311	
1965.000000	543.550575	0.763879	
1966.000000	543.667919	0.765334	
1967.000000	543.785266	0.784080	
1968.000000	543.902616	0.781194	
1969.000000	544.019970	0.765660	
1970.000000	544.137327	0.773415	
1971.000000	544.254687	0.777731	
1972.000000	544.372051	0.798736	
1973.000000	544.489418	0.758584	
1974.000000	544.606788	0.776025	
1975.000000	544.724161	0.789978	
1976.000000	544.841537	0.792613	
1977.000000	544.958917	0.774218	
1978.000000	545.076300	0.781270	
1979.000000	545.193687	0.795072	
1980.000000	545.311076	0.799514	
1981.000000	545.428469	0.777681	
1982.000000	545.545865	0.780467	
1983.000000	545.663264	0.803203	
1984.000000	545.780666	0.799012	
1985.000000	545.898072	0.784984	
1986.000000	546.015481	0.794269	
1987.000000	546.132893	0.817758	
1988.000000	546.250309	0.810255	
1989.000000	546.367727	0.792462	
1990.000000	546.485149	0.794997	
1991.000000	546.602574	0.803354	
1992.000000	546.720003	0.803529	
1993.000000	546.837434	0.802601	
1994.000000	546.954869	0.796954	
1995.000000	547.072307	0.814596	
1996.000000	547.189748	0.817106	
1997.000000	547.307192	0.800919	
1998.000000	547.424640	0.797431	
1999.000000	547.542091	0.830306	
2000.000000	547.659545	0.833493	
2001.000000	547.777002	0.801120	
2002.000000	547.894463	0.811660	
2003.000000	548.011926	0.825186	
2004.000000	548.129393	0.820895	
2005.000000	548.246863	0.813592	
2006.000000	548.364337	0.811083	
2007.000000	548.481813	0.831661	
2008.000000	548.599293	0.829779	
2009.000000	548.716776	0.809728	
2010.000000	548.834262	0.808247	
2011.000000	548.951751	0.825914	
2012.000000	549.069243	0.827746	
2013.000000	549.186739	0.809477	
2014.000000	549.304238	0.822125	
2015.000000	549.421740	0.834196	
2016.000000	549.539245	0.817281	
2017.000000	549.656753	0.822075	
2018.000000	549.774265	0.831009	
2019.000000	549.891779	0.835576	
2020.000000	550.009297	0.821021	
2021.000000	550.126818	0.819540	
2022.000000	550.244343	0.829578	
2023.000000	550.361870	0.842477	
2024.000000	550.479401	0.815826	
2025.000000	550.596934	0.823530	
2026.000000	550.714471	0.840394	
2027.000000	550.832011	0.830456	
2028.000000	550.949554	0.800944	
2029.000000	551.067101	0.812463	
2030.000000	551.184650	0.838713	
2031.000000	551.302203	0.819289	
2032.000000	551.419759	0.821648	
2033.000000	551.537318	0.804558	
2034.000000	551.654880	0.824559	
2035.000000	551.772445	0.832941	
2036.000000	551.890014	0.815776	
2037.000000	552.007586	0.816328	
2038.000000	552.125160	0.841047	
2039.000000	552.242738	0.821397	
2040.000000	552.360319	0.810656	
2041.000000	552.477903	0.815424	
2042.000000	552.595491	0.824659	
2043.000000	552.713081	0.820393	
2044.000000	552.830675	0.809954	
2045.000000	552.948272	0.810179	
2046.000000	553.065871	0.831937	
2047.000000	553.183474	0.833167	
2048.000000	553.301081	0.804031	
2049.000000	553.418690	0.808021	
2050.000000	553.536302	0.822100	
2051.000000	553.653918	0.818637	
2052.000000	553.771536	0.802500	
2053.000000	553.889158	0.810656	
2054.000000	554.006783	0.820870	
2055.000000	554.124411	0.814195	
2056.000000	554.242042	0.797281	
2057.000000	554.359676	0.795248	
2058.000000	554.477313	0.821071	
2059.000000	554.594954	0.818210	
2060.000000	554.712597	0.796779	
2061.000000	554.830244	0.800744	
2062.000000	554.947894	0.816378	
2063.000000	555.065546	0.808674	
2064.000000	555.183202	0.791760	
2065.000000	555.300861	0.787795	
2066.000000	555.418524	0.803052	
2067.000000	555.536189	0.800091	
2068.000000	555.653857	0.791007	
2069.000000	555.771528	0.784106	
2070.000000	555.889203	0.810782	
2071.000000	556.006881	0.805813	
2072.000000	556.124561	0.785260	
2073.000000	556.242245	0.779312	
2074.000000	556.359932	0.803755	
2075.000000	556.477622	0.795423	
2076.000000	556.595315	0.783754	
2077.000000	556.713011	0.778610	
2078.000000	556.830710	0.794169	
2079.000000	556.948412	0.791333	
2080.000000	557.066118	0.772210	
2081.000000	557.183826	0.766037	
2082.000000	557.301537	0.795072	
2083.000000	557.419252	0.791509	
2084.000000	557.536969	0.767392	
2085.000000	557.654690	0.766062	
2086.000000	557.772414	0.800317	
2087.000000	557.890141	0.774946	
2088.000000	558.007870	0.753464	
2089.000000	558.125603	0.752837	
2090.000000	558.243339	0.763251	
2091.000000	558.361078	0.770403	
2092.000000	558.478820	0.752962	
2093.000000	558.596565	0.747241	
2094.000000	558.714314	0.762248	
2095.000000	558.832065	0.771282	
2096.000000	558.949819	0.738984	
2097.000000	559.067576	0.746889	
2098.000000	559.185337	0.758057	
2099.000000	559.303100	0.749323	
2100.000000	559.420866	0.736450	
2101.000000	559.538636	0.730552	
2102.000000	559.656408	0.737905	
2103.000000	559.774184	0.746588	
2104.000000	559.891963	0.729674	
2105.000000	560.009744	0.719385	
2106.000000	560.127529	0.737679	
2107.000000	560.245316	0.738181	
2108.000000	560.363107	0.719837	
2109.000000	560.480901	0.719912	
2110.000000	560.598697	0.732033	
2111.000000	560.716497	0.728168	
2112.000000	560.834300	0.706561	
2113.000000	560.952106	0.711078	
2114.000000	561.069914	0.732259	
2115.000000	561.187726	0.730251	
2116.000000	561.305541	0.706360	
2117.000000	561.423359	0.704478	
2118.000000	561.541180	0.724554	
2119.000000	561.659004	0.730151	
2120.000000	561.776830	0.709924	
2121.000000	561.894660	0.694741	
2122.000000	562.012493	0.728419	
2123.000000	562.130329	0.711706	
2124.000000	562.248168	0.698857	
2125.000000	562.366010	0.699936	
2126.000000	562.483854	0.720891	
2127.000000	562.601702	0.705382	
2128.000000	562.719553	0.691479	
2129.000000	562.837407	0.688317	
2130.000000	562.955264	0.709096	
2131.000000	563.073123	0.715319	
2132.000000	563.190986	0.687614	
2133.000000	563.308852	0.691153	
2134.000000	563.426721	0.690626	
2135.000000	563.544592	0.694490	
2136.000000	563.662467	0.681968	
2137.000000	563.780345	0.681290	
2138.000000	563.898225	0.683549	
2139.000000	564.016109	0.688267	
2140.000000	564.133996	0.668391	
2141.000000	564.251885	0.674540	
2142.000000	564.369778	0.684778	
2143.000000	564.487673	0.691128	
2144.000000	564.605572	0.663975	
2145.000000	564.723473	0.671026	
2146.000000	564.841377	0.686686	
2147.000000	564.959285	0.682871	
2148.000000	565.077195	0.665380	
2149.000000	565.195108	0.668743	
2150.000000	565.313024	0.688819	
2151.000000	565.430944	0.691830	
2152.000000	565.548866	0.657901	
2153.000000	565.666791	0.663648	
2154.000000	565.784719	0.669194	
2155.000000	565.902650	0.673260	
2156.000000	566.020583	0.651778	
2157.000000	566.138520	0.654388	
2158.000000	566.256460	0.659106	
2159.000000	566.374403	0.675594	
2160.000000	566.492348	0.671679	
2161.000000	566.610297	0.649846	
2162.000000	566.728248	0.661691	
2163.000000	566.846203	0.667212	
2164.000000	566.964160	0.639582	
2165.000000	567.082121	0.644501	
2166.000000	567.200084	0.660461	
2167.000000	567.318050	0.654388	
2168.000000	567.436019	0.638704	
2169.000000	567.553991	0.641891	
2170.000000	567.671966	0.656120	
2171.000000	567.789944	0.655392	
2172.000000	567.907924	0.634789	
2173.000000	568.025908	0.636721	
2174.000000	568.143895	0.648441	
2175.000000	568.261884	0.659407	
2176.000000	568.379877	0.631903	
2177.000000	568.497872	0.631627	
2178.000000	568.615870	0.651427	
2179.000000	568.733871	0.642342	
2180.000000	568.851875	0.624148	
2181.000000	568.969882	0.630372	
2182.000000	569.087892	0.646684	
2183.000000	569.205905	0.637499	
2184.000000	569.323920	0.629569	
2185.000000	569.441939	0.624675	
2186.000000	569.559960	0.636771	
2187.000000	569.677984	0.642292	
2188.000000	569.796011	0.622718	
2189.000000	569.914042	0.626959	
2190.000000	570.032074	0.649996	
2191.000000	570.150110	0.633283	
2192.000000	570.268149	0.612680	
2193.000000	570.386191	0.609141	
2194.000000	570.504235	0.638854	
2195.000000	570.622282	0.628590	
2196.000000	570.740333	0.617122	
2197.000000	570.858386	0.621865	
2198.000000	570.976442	0.629117	
2199.000000	571.094500	0.637800	
2200.000000	571.212562	0.607912	
2201.000000	571.330627	0.604122	
2202.000000	571.448694	0.638026	
2203.000000	571.566764	0.636947	
2204.000000	571.684838	0.612529	
2205.000000	571.802914	0.609116	
2206.000000	571.920992	0.620008	
2207.000000	572.039074	0.623496	
2208.000000	572.157159	0.611375	
2209.000000	572.275246	0.621087	
2210.000000	572.393336	0.631978	
2211.000000	572.511430	0.634789	
2212.000000	572.629526	0.610497	
2213.000000	572.747624	0.619179	
2214.000000	572.865726	0.617799	
2215.000000	572.983831	0.625378	
2216.000000	573.101938	0.611626	
2217.000000	573.220048	0.609468	
2218.000000	573.338161	0.619255	
2219.000000	573.456277	0.623646	
2220.000000	573.574396	0.608389	
2221.000000	573.692517	0.605477	
2222.000000	573.810642	0.627009	
2223.000000	573.928769	0.614411	
2224.000000	574.046899	0.604373	
2225.000000	574.165032	0.607887	
2226.000000	574.283167	0.617674	
2227.000000	574.401306	0.623922	
2228.000000	574.519447	0.605201	
2229.000000	574.637591	0.600534	
2230.000000	574.755738	0.614336	
2231.000000	574.873888	0.617598	
2232.000000	574.992041	0.602692	
2233.000000	575.110196	0.603821	
2234.000000	575.228354	0.621564	
2235.000000	575.346515	0.621513	
2236.000000	575.464679	0.601638	
2237.000000	575.582846	0.600258	
2238.000000	575.701015	0.624424	
2239.000000	575.819187	0.622341	
2240.000000	575.937362	0.609894	
2241.000000	576.055540	0.606757	
2242.000000	576.173721	0.624324	
2243.000000	576.291904	0.623446	
2244.000000	576.410090	0.606080	
2245.000000	576.528279	0.614713	
2246.000000	576.646471	0.615089	
2247.000000	576.764666	0.626884	
2248.000000	576.882863	0.607008	
2249.000000	577.001063	0.603947	
2250.000000	577.119266	0.618903	
2251.000000	577.237472	0.617849	
2252.000000	577.355680	0.603344	
2253.000000	577.473891	0.604725	
2254.000000	577.592105	0.625227	
2255.000000	577.710322	0.612278	
2256.000000	577.828542	0.612278	
2257.000000	577.946764	0.610396	
2258.000000	578.064989	0.617799	
2259.000000	578.183217	0.628590	
2260.000000	578.301448	0.613985	
2261.000000	578.419681	0.609693	
2262.000000	578.537917	0.614888	
2263.000000	578.656156	0.623145	
2264.000000	578.774398	0.603520	
2265.000000	578.892643	0.611500	
2266.000000	579.010890	0.625453	
2267.000000	579.129140	0.616469	
2268.000000	579.247392	0.608665	
2269.000000	579.365648	0.616570	
2270.000000	579.483906	0.617398	
2271.000000	579.602167	0.618627	
2272.000000	579.720431	0.610873	
2273.000000	579.838697	0.623897	
2274.000000	579.956966	0.622316	
2275.000000	580.075238	0.611475	
2276.000000	580.193513	0.609392	
2277.000000	580.311791	0.630246	
2278.000000	580.430071	0.624575	
2279.000000	580.548354	0.613458	
2280.000000	580.666639	0.621764	
2281.000000	580.784927	0.626608	
2282.000000	580.903219	0.626106	
2283.000000	581.021512	0.612328	
2284.000000	581.139809	0.618878	
2285.000000	581.258108	0.642869	
2286.000000	581.376410	0.644952	
2287.000000	581.494715	0.619656	
2288.000000	581.613022	0.623621	
2289.000000	581.731332	0.636294	
2290.000000	581.849645	0.638503	
2291.000000	581.967961	0.620008	
2292.000000	582.086279	0.621488	
2293.000000	582.204600	0.634011	
2294.000000	582.322923	0.636420	
2295.000000	582.441250	0.618376	
2296.000000	582.559579	0.623145	
2297.000000	582.677911	0.630096	
2298.000000	582.796245	0.631577	
2299.000000	582.914582	0.625855	
2300.000000	583.032922	0.616745	
2301.000000	583.151265	0.646232	
2302.000000	583.269610	0.629067	
2303.000000	583.387958	0.629870	
2304.000000	583.506309	0.627059	
2305.000000	583.624662	0.640937	
2306.000000	583.743018	0.634513	
2307.000000	583.861377	0.628916	
2308.000000	583.979738	0.623170	
2309.000000	584.098102	0.637072	
2310.000000	584.216469	0.640862	
2311.000000	584.334838	0.621664	
2312.000000	584.453211	0.625554	
2313.000000	584.571585	0.646834	
2314.000000	584.689963	0.652305	
2315.000000	584.808343	0.634212	
2316.000000	584.926726	0.640084	
2317.000000	585.045111	0.642644	
2318.000000	585.163499	0.651176	
2319.000000	585.281890	0.637549	
2320.000000	585.400284	0.642443	
2321.000000	585.518680	0.646809	
2322.000000	585.637078	0.644425	
2323.000000	585.755480	0.642468	
2324.000000	585.873884	0.643421	
2325.000000	585.992291	0.661289	
2326.000000	586.110700	0.667237	
2327.000000	586.229112	0.638955	
2328.000000	586.347527	0.648842	
2329.000000	586.465944	0.657249	
2330.000000	586.584364	0.651477	
2331.000000	586.702787	0.646834	
2332.000000	586.821212	0.653786	
2333.000000	586.939640	0.660160	
2334.000000	587.058071	0.657876	
2335.000000	587.176504	0.637248	
2336.000000	587.294940	0.654087	
2337.000000	587.413378	0.657977	
2338.000000	587.531819	0.664251	
2339.000000	587.650263	0.655718	
2340.000000	587.768709	0.646834	
2341.000000	587.887158	0.661691	
2342.000000	588.005610	0.676899	
2343.000000	588.124064	0.660235	
2344.000000	588.242521	0.649520	
2345.000000	588.360981	0.663648	
2346.000000	588.479443	0.673586	
2347.000000	588.597907	0.663096	
2348.000000	588.716375	0.655467	
2349.000000	588.834845	0.665455	
2350.000000	588.953317	0.684126	
2351.000000	589.071792	0.662670	
2352.000000	589.190270	0.660562	
2353.000000	589.308750	0.676522	
2354.000000	589.427233	0.670424	
2355.000000	589.545719	0.661816	
2356.000000	589.664207	0.663096	
2357.000000	589.782698	0.657676	
2358.000000	589.901191	0.675845	
2359.000000	590.019687	0.665279	
2360.000000	590.138186	0.673059	
2361.000000	590.256687	0.668567	
2362.000000	590.375191	0.676522	
2363.000000	590.493697	0.662419	
2364.000000	590.612206	0.659758	
2365.000000	590.730718	0.683022	
2366.000000	590.849232	0.677702	
2367.000000	590.967749	0.663096	
2368.000000	591.086268	0.670424	
2369.000000	591.204790	0.668040	
2370.000000	591.323314	0.678078	
2371.000000	591.441841	0.667940	
2372.000000	591.560371	0.661164	
2373.000000	591.678903	0.681893	
2374.000000	591.797438	0.687614	
2375.000000	591.915975	0.660336	
2376.000000	592.034515	0.663498	
2377.000000	592.153057	0.675393	
2378.000000	592.271602	0.688292	
2379.000000	592.390150	0.670449	
2380.000000	592.508700	0.667488	
2381.000000	592.627252	0.685305	
2382.000000	592.745808	0.671528	
2383.000000	592.864365	0.664928	
2384.000000	592.982926	0.674941	
2385.000000	593.101489	0.679007	
2386.000000	593.220054	0.690902	
2387.000000	593.338622	0.676999	
2388.000000	593.457193	0.668718	
2389.000000	593.575766	0.685080	
2390.000000	593.694341	0.696222	
2391.000000	593.812919	0.674540	
2392.000000	593.931500	0.673260	
2393.000000	594.050083	0.682118	
2394.000000	594.168669	0.686560	
2395.000000	594.287257	0.673711	
2396.000000	594.405848	0.672883	
2397.000000	594.524442	0.681315	
2398.000000	594.643038	0.692081	
2399.000000	594.761636	0.671227	
2400.000000	594.880237	0.680864	
2401.000000	594.998840	0.684703	
2402.000000	595.117447	0.691705	
2403.000000	595.236055	0.677953	
2404.000000	595.354666	0.674138	
2405.000000	595.473280	0.686560	
2406.000000	595.591896	0.691353	
2407.000000	595.710514	0.673511	
2408.000000	595.829135	0.680788	
2409.000000	595.947759	0.686033	
2410.000000	596.066385	0.676221	
2411.000000	596.185014	0.671603	
2412.000000	596.303645	0.671829	
2413.000000	596.422279	0.679684	
2414.000000	596.540915	0.691203	
2415.000000	596.659553	0.673762	
2416.000000	596.778195	0.665079	
2417.000000	596.896838	0.688467	
2418.000000	597.015484	0.678028	
2419.000000	597.134133	0.672130	
2420.000000	597.252784	0.668241	
2421.000000	597.371438	0.682319	
2422.000000	597.490094	0.681591	
2423.000000	597.608752	0.665857	
2424.000000	597.727413	0.665957	
2425.000000	597.846077	0.677124	
2426.000000	597.964743	0.688442	
2427.000000	598.083412	0.666007	
2428.000000	598.202083	0.654162	
2429.000000	598.320756	0.682871	
2430.000000	598.439432	0.682947	
2431.000000	598.558110	0.660060	
2432.000000	598.676791	0.665129	
2433.000000	598.795475	0.681190	
2434.000000	598.914161	0.672381	
2435.000000	599.032849	0.656471	
2436.000000	599.151540	0.662343	
2437.000000	599.270233	0.667137	
2438.000000	599.388929	0.683373	
2439.000000	599.507627	0.658378	
2440.000000	599.626327	0.657676	
2441.000000	599.745030	0.664451	
2442.000000	599.863736	0.658704	
2443.000000	599.982444	0.648139	
2444.000000	600.101154	0.665631	
2445.000000	600.219867	0.665129	
2446.000000	600.338582	0.658278	
2447.000000	600.457300	0.653585	
2448.000000	600.576020	0.652983	
2449.000000	600.694743	0.653836	
2450.000000	600.813468	0.670876	
2451.000000	600.932196	0.648742	
2452.000000	601.050926	0.638428	
2453.000000	601.169658	0.660486	
2454.000000	601.288393	0.662143	
2455.000000	601.407130	0.641138	
2456.000000	601.525870	0.639707	
2457.000000	601.644612	0.653786	
2458.000000	601.763357	0.658278	
2459.000000	601.882103	0.642192	
2460.000000	602.000853	0.636596	
2461.000000	602.119605	0.647437	
2462.000000	602.238359	0.647387	
2463.000000	602.357116	0.630723	
2464.000000	602.475875	0.631300	
2465.000000	602.594636	0.634864	
2466.000000	602.713400	0.645128	
2467.000000	602.832166	0.626030	
2468.000000	602.950935	0.628992	
2469.000000	603.069706	0.642443	
2470.000000	603.188480	0.634312	
2471.000000	603.307256	0.621814	
2472.000000	603.426034	0.617900	
2473.000000	603.544815	0.645153	
2474.000000	603.663598	0.631376	
2475.000000	603.782384	0.621413	
2476.000000	603.901172	0.616921	
2477.000000	604.019962	0.635667	
2478.000000	604.138755	0.626106	
2479.000000	604.257550	0.615089	
2480.000000	604.376347	0.609618	
2481.000000	604.495147	0.631677	
2482.000000	604.613949	0.620760	
2483.000000	604.732754	0.609166	
2484.000000	604.851561	0.608338	
2485.000000	604.970371	0.614060	
2486.000000	605.089182	0.614938	
2487.000000	605.207997	0.601563	
2488.000000	605.326813	0.596293	
2489.000000	605.445632	0.619957	
2490.000000	605.564453	0.611450	
2491.000000	605.683277	0.594134	
2492.000000	605.802103	0.588940	
2493.000000	605.920932	0.599379	
2494.000000	606.039762	0.606105	
2495.000000	606.158596	0.584197	
2496.000000	606.277431	0.586556	
2497.000000	606.396269	0.592428	
2498.000000	606.515109	0.597798	
2499.000000	606.633952	0.581888	
2500.000000	606.752797	0.575965	
2501.000000	606.871644	0.585226	
2502.000000	606.990494	0.594084	
2503.000000	607.109346	0.582114	
2504.000000	607.228200	0.562816	
2505.000000	607.347057	0.580257	
2506.000000	607.465916	0.593959	
2507.000000	607.584777	0.565551	
2508.000000	607.703641	0.568311	
2509.000000	607.822507	0.582942	
2510.000000	607.941375	0.566304	
2511.000000	608.060246	0.566454	
2512.000000	608.179119	0.562539	
2513.000000	608.297995	0.582189	
2514.000000	608.416872	0.569993	
2515.000000	608.535752	0.562138	
2516.000000	608.654635	0.555739	
2517.000000	608.773520	0.561235	
2518.000000	608.892407	0.563895	
2519.000000	609.011296	0.544245	
2520.000000	609.130188	0.549816	
2521.000000	609.249082	0.564146	
2522.000000	609.367978	0.561787	
2523.000000	609.486877	0.544295	
2524.000000	609.605778	0.543141	
2525.000000	609.724681	0.559302	
2526.000000	609.843586	0.554082	
2527.000000	609.962494	0.543869	
2528.000000	610.081405	0.552652	
2529.000000	610.200317	0.538197	
2530.000000	610.319232	0.530844	
2531.000000	610.438149	0.522889	
2532.000000	610.557068	0.539552	
2533.000000	610.675990	0.537018	
2534.000000	610.794914	0.511195	
2535.000000	610.913840	0.515260	
2536.000000	611.032769	0.530593	
2537.000000	611.151700	0.520982	
2538.000000	611.270633	0.508258	
2539.000000	611.389569	0.505523	
2540.000000	611.508506	0.516013	
2541.000000	611.627446	0.523642	
2542.000000	611.746389	0.508434	
2543.000000	611.865333	0.495234	
2544.000000	611.984280	0.519300	
2545.000000	612.103229	0.519024	
2546.000000	612.222181	0.498145	
2547.000000	612.341134	0.497618	
2548.000000	612.460090	0.521358	
2549.000000	612.579049	0.499575	
2550.000000	612.698009	0.490491	
2551.000000	612.816972	0.489537	
2552.000000	612.935937	0.494080	
2553.000000	613.054904	0.506828	
2554.000000	613.173874	0.479048	
2555.000000	613.292846	0.480102	
2556.000000	613.411820	0.495786	
2557.000000	613.530796	0.498572	
2558.000000	613.649775	0.479273	
2559.000000	613.768756	0.473677	
2560.000000	613.887739	0.483891	
2561.000000	614.006724	0.487630	
2562.000000	614.125712	0.462133	
2563.000000	614.244702	0.470841	
2564.000000	614.363694	0.471419	
2565.000000	614.482688	0.473376	
2566.000000	614.601685	0.456989	
2567.000000	614.720684	0.462610	
2568.000000	614.839685	0.480578	
2569.000000	614.958688	0.461807	
2570.000000	615.077694	0.451794	
2571.000000	615.196702	0.450715	
2572.000000	615.315712	0.465295	
2573.000000	615.434724	0.463037	
2574.000000	615.553738	0.450012	
2575.000000	615.672755	0.443613	
2576.000000	615.791774	0.461054	
2577.000000	615.910795	0.458068	
2578.000000	616.029819	0.441078	
2579.000000	616.148844	0.444567	
2580.000000	616.267872	0.443136	
2581.000000	616.386902	0.451945	
2582.000000	616.505934	0.437289	
2583.000000	616.624969	0.442534	
2584.000000	616.744005	0.442258	
2585.000000	616.863044	0.444140	
2586.000000	616.982085	0.428280	
2587.000000	617.101129	0.426423	
2588.000000	617.220174	0.436511	
2589.000000	617.339222	0.437189	
2590.000000	617.458272	0.424039	
2591.000000	617.577324	0.422583	
2592.000000	617.696378	0.439648	
2593.000000	617.815435	0.429560	
2594.000000	617.934494	0.412997	
2595.000000	618.053554	0.420425	
2596.000000	618.172618	0.427602	
2597.000000	618.291683	0.433123	
2598.000000	618.410750	0.410287	
2599.000000	618.529820	0.409860	
2600.000000	618.648892	0.426122	
2601.000000	618.767966	0.415431	
2602.000000	618.887042	0.407225	
2603.000000	619.006120	0.400248	
2604.000000	619.125201	0.416259	
2605.000000	619.244284	0.416761	
2606.000000	619.363369	0.395305	
2607.000000	619.482456	0.396835	
2608.000000	619.601545	0.403511	
2609.000000	619.720636	0.403109	
2610.000000	619.839730	0.389658	
2611.000000	619.958826	0.390888	
2612.000000	620.077924	0.404715	
2613.000000	620.197024	0.404590	
2614.000000	620.316126	0.388278	
2615.000000	620.435230	0.383836	
2616.000000	620.554337	0.380825	
2617.000000	620.673446	0.396685	
2618.000000	620.792556	0.380875	
2619.000000	620.911669	0.384187	
2620.000000	621.030785	0.395832	
2621.000000	621.149902	0.383384	
2622.000000	621.269021	0.373547	
2623.000000	621.388143	0.376408	
2624.000000	621.507267	0.388981	
2625.000000	621.626393	0.384564	
2626.000000	621.745521	0.371615	
2627.000000	621.864651	0.370260	
2628.000000	621.983783	0.379244	
2629.000000	622.102917	0.375906	
2630.000000	622.222054	0.368127	
2631.000000	622.341193	0.367449	
2632.000000	622.460334	0.376759	
2633.000000	622.579477	0.365793	
2634.000000	622.698622	0.356658	
2635.000000	622.817769	0.361125	
2636.000000	622.936918	0.375555	
2637.000000	623.056070	0.371941	
2638.000000	623.175223	0.357587	
2639.000000	623.294379	0.356357	
2640.000000	623.413537	0.360749	
2641.000000	623.532697	0.370209	
2642.000000	623.651859	0.343834	
2643.000000	623.771023	0.349882	
2644.000000	623.890189	0.361777	
2645.000000	624.009357	0.368654	
2646.000000	624.128528	0.350309	
2647.000000	624.247700	0.352291	
2648.000000	624.366875	0.362681	
2649.000000	624.486052	0.357913	
2650.000000	624.605231	0.341325	
2651.000000	624.724412	0.336080	
2652.000000	624.843595	0.361903	
2653.000000	624.962780	0.362254	
2654.000000	625.081967	0.338087	
2655.000000	625.201156	0.336958	
2656.000000	625.320348	0.356658	
2657.000000	625.439541	0.352241	
2658.000000	625.558737	0.337335	
2659.000000	625.677935	0.334524	
2660.000000	625.797134	0.357587	
2661.000000	625.916336	0.345967	
2662.000000	626.035540	0.332040	
2663.000000	626.154746	0.331563	
2664.000000	626.273954	0.349932	
2665.000000	626.393164	0.351363	
2666.000000	626.512377	0.328652	
2667.000000	626.631591	0.330785	
2668.000000	626.750807	0.342203	
2669.000000	626.870026	0.337159	
2670.000000	626.989246	0.322654	
2671.000000	627.108469	0.326017	
2672.000000	627.227693	0.328852	
2673.000000	627.346920	0.336331	
2674.000000	627.466149	0.324034	
2675.000000	627.585380	0.323808	
2676.000000	627.704612	0.334424	
2677.000000	627.823847	0.327397	
2678.000000	627.943084	0.315376	
2679.000000	628.062323	0.320496	
2680.000000	628.181564	0.338865	
2681.000000	628.300807	0.334223	
2682.000000	628.420052	0.314749	
2683.000000	628.539300	0.313745	
2684.000000	628.658549	0.323206	
2685.000000	628.777800	0.322554	
2686.000000	628.897053	0.314699	
2687.000000	629.016309	0.309529	
2688.000000	629.135566	0.319015	
2689.000000	629.254825	0.326217	
2690.000000	629.374087	0.305514	
2691.000000	629.493350	0.309755	
2692.000000	629.612616	0.335151	
2693.000000	629.731883	0.309479	
2694.000000	629.851153	0.301172	
2695.000000	629.970424	0.305087	
2696.000000	630.089698	0.320094	
2697.000000	630.208973	0.315803	
2698.000000	630.328251	0.303607	
2699.000000	630.447531	0.308048	
2700.000000	630.566812	0.313243	
2701.000000	630.686096	0.317886	
2702.000000	630.805382	0.306493	
2703.000000	630.924669	0.303004	
2704.000000	631.043959	0.314598	
2705.000000	631.163251	0.313193	
2706.000000	631.282544	0.299893	
2707.000000	631.401840	0.302352	
2708.000000	631.521138	0.320320	
2709.000000	631.640437	0.310759	
2710.000000	631.759739	0.300620	
2711.000000	631.879043	0.300068	
2712.000000	631.998348	0.308400	
2713.000000	632.117656	0.311160	
2714.000000	632.236966	0.295777	
2715.000000	632.356277	0.289277	
2716.000000	632.475591	0.306442	
2717.000000	632.594906	0.305690	
2718.000000	632.714224	0.290908	
2719.000000	632.833543	0.290306	
2720.000000	632.952865	0.300093	
2721.000000	633.072189	0.302829	
2722.000000	633.191514	0.292489	
2723.000000	633.310841	0.287972	
2724.000000	633.430171	0.303858	
2725.000000	633.549502	0.317936	
2726.000000	633.668836	0.288449	
2727.000000	633.788171	0.289578	
2728.000000	633.907508	0.300470	
2729.000000	634.026848	0.300545	
2730.000000	634.146189	0.287044	
2731.000000	634.265532	0.281548	
2732.000000	634.384877	0.290381	
2733.000000	634.504224	0.292991	
2734.000000	634.623573	0.282978	
2735.000000	634.742924	0.281849	
2736.000000	634.862277	0.293092	
2737.000000	634.981632	0.298437	
2738.000000	635.100989	0.279390	
2739.000000	635.220348	0.280720	
2740.000000	635.339709	0.291435	
2741.000000	635.459071	0.303883	
2742.000000	635.578436	0.277156	
2743.000000	635.697803	0.282401	
2744.000000	635.817171	0.286667	
2745.000000	635.936542	0.302126	
2746.000000	636.055914	0.278612	
2747.000000	636.175288	0.280444	
2748.000000	636.294665	0.280996	
2749.000000	636.414043	0.293945	
2750.000000	636.533423	0.276529	
2751.000000	636.652805	0.283555	
2752.000000	636.772189	0.292640	
2753.000000	636.891575	0.283405	
2754.000000	637.010963	0.270305	
2755.000000	637.130352	0.273216	
2756.000000	637.249744	0.286743	
2757.000000	637.369137	0.288173	
2758.000000	637.488533	0.272840	
2759.000000	637.607930	0.270682	
2760.000000	637.727330	0.280042	
2761.000000	637.846731	0.285011	
2762.000000	637.966134	0.270832	
2763.000000	638.085539	0.269076	
2764.000000	638.204946	0.283154	
2765.000000	638.324355	0.285011	
2766.000000	638.443765	0.267946	
2767.000000	638.563178	0.271259	
2768.000000	638.682593	0.281924	
2769.000000	638.802009	0.275425	
2770.000000	638.921427	0.268850	
2771.000000	639.040848	0.266691	
2772.000000	639.160270	0.282778	
2773.000000	639.279694	0.280469	
2774.000000	639.399119	0.266917	
2775.000000	639.518547	0.264307	
2776.000000	639.637977	0.273643	
2777.000000	639.757408	0.289854	
2778.000000	639.876842	0.264508	
2779.000000	639.996277	0.265964	
2780.000000	640.115714	0.279440	
2781.000000	640.235153	0.277508	
2782.000000	640.354594	0.261246	
2783.000000	640.474037	0.269803	
2784.000000	640.593482	0.272990	
2785.000000	640.712928	0.260819	
2786.000000	640.832376	0.263253	
2787.000000	640.951827	0.271334	
2788.000000	641.071279	0.267419	
2789.000000	641.190733	0.262425	
2790.000000	641.310189	0.267018	
2791.000000	641.429646	0.272463	
2792.000000	641.549106	0.277533	
2793.000000	641.668567	0.256754	
2794.000000	641.788030	0.261974	
2795.000000	641.907495	0.271936	
2796.000000	642.026962	0.269000	
2797.000000	642.146431	0.260192	
2798.000000	642.265902	0.261271	
2799.000000	642.385374	0.263078	
2800.000000	642.504849	0.280318	
2801.000000	642.624325	0.251459	
2802.000000	642.743803	0.258812	
2803.000000	642.863283	0.261020	
2804.000000	642.982764	0.277533	
2805.000000	643.102248	0.257908	
2806.000000	643.221733	0.262074	
2807.000000	643.341220	0.266390	
2808.000000	643.460709	0.262601	
2809.000000	643.580200	0.249125	
2810.000000	643.699693	0.251358	
2811.000000	643.819187	0.268850	
2812.000000	643.938684	0.273342	
2813.000000	644.058182	0.250078	
2814.000000	644.177682	0.256704	
2815.000000	644.297183	0.262701	
2816.000000	644.416687	0.267018	
2817.000000	644.536192	0.251132	
2818.000000	644.655700	0.251835	
2819.000000	644.775209	0.271384	
2820.000000	644.894719	0.250354	
2821.000000	645.014232	0.251434	
2822.000000	645.133746	0.255901	
2823.000000	645.253263	0.260267	
2824.000000	645.372781	0.264734	
2825.000000	645.492300	0.246741	
2826.000000	645.611822	0.245611	
2827.000000	645.731346	0.269000	
2828.000000	645.850871	0.270882	
2829.000000	645.970398	0.254847	
2830.000000	646.089927	0.247268	
2831.000000	646.209457	0.263228	
2832.000000	646.328989	0.267570	
2833.000000	646.448524	0.248949	
2834.000000	646.568060	0.248523	
2835.000000	646.687597	0.266114	
2836.000000	646.807137	0.259037	
2837.000000	646.926678	0.246239	
2838.000000	647.046221	0.244357	
2839.000000	647.165766	0.253667	
2840.000000	647.285313	0.254821	
2841.000000	647.404861	0.241069	
2842.000000	647.524411	0.244583	
2843.000000	647.643963	0.249225	
2844.000000	647.763517	0.254269	
2845.000000	647.883072	0.238660	
2846.000000	648.002629	0.245461	
2847.000000	648.122188	0.259941	
2848.000000	648.241749	0.263780	
2849.000000	648.361312	0.243880	
2850.000000	648.480876	0.240994	
2851.000000	648.600442	0.256026	
2852.000000	648.720010	0.261647	
2853.000000	648.839579	0.243503	
2854.000000	648.959151	0.240868	
2855.000000	649.078724	0.268875	
2856.000000	649.198298	0.250505	
2857.000000	649.317875	0.243027	
2858.000000	649.437453	0.246239	
2859.000000	649.557033	0.266767	
2860.000000	649.676615	0.261698	
2861.000000	649.796198	0.240818	
2862.000000	649.915783	0.240316	
2863.000000	650.035370	0.262174	
2864.000000	650.154959	0.249526	
2865.000000	650.274550	0.237154	
2866.000000	650.394142	0.239413	
2867.000000	650.513736	0.246741	
2868.000000	650.633331	0.263379	
2869.000000	650.752928	0.239965	
2870.000000	650.872527	0.236753	
2871.000000	650.992128	0.260894	
2872.000000	651.111731	0.250480	
2873.000000	651.231335	0.234795	
2874.000000	651.350941	0.236427	
2875.000000	651.470548	0.246565	
2876.000000	651.590158	0.249777	
2877.000000	651.709769	0.234043	
2878.000000	651.829382	0.235824	
2879.000000	651.948996	0.247092	
2880.000000	652.068612	0.245009	
2881.000000	652.188230	0.230630	
2882.000000	652.307850	0.230881	
2883.000000	652.427471	0.242173	
2884.000000	652.547094	0.237129	
2885.000000	652.666719	0.231684	
2886.000000	652.786345	0.234519	
2887.000000	652.905973	0.254269	
2888.000000	653.025603	0.241345	
2889.000000	653.145234	0.224883	
2890.000000	653.264867	0.230479	
2891.000000	653.384502	0.244332	
2892.000000	653.504139	0.243905	
2893.000000	653.623777	0.235021	
2894.000000	653.743417	0.229124	
2895.000000	653.863058	0.235448	
2896.000000	653.982701	0.242173	
2897.000000	654.102346	0.225636	
2898.000000	654.221993	0.228848	
2899.000000	654.341641	0.238510	
2900.000000	654.461291	0.242098	
2901.000000	654.580943	0.225234	
2902.000000	654.700596	0.222549	
2903.000000	654.820251	0.236276	
2904.000000	654.939907	0.240592	
2905.000000	655.059566	0.220893	
2906.000000	655.179226	0.223528	
2907.000000	655.298887	0.237029	
2908.000000	655.418550	0.246164	
2909.000000	655.538215	0.222599	
2910.000000	655.657882	0.221420	
2911.000000	655.777550	0.237506	
2912.000000	655.897220	0.230755	
2913.000000	656.016891	0.223528	
2914.000000	656.136564	0.216451	
2915.000000	656.256239	0.231182	
2916.000000	656.375916	0.236276	
2917.000000	656.495594	0.216476	
2918.000000	656.615273	0.220064	
2919.000000	656.734955	0.231659	
2920.000000	656.854638	0.230554	
2921.000000	656.974322	0.213991	
2922.000000	657.094009	0.214293	
2923.000000	657.213697	0.226213	
2924.000000	657.333386	0.233917	
2925.000000	657.453077	0.210227	
2926.000000	657.572770	0.210553	
2927.000000	657.692464	0.222423	
2928.000000	657.812160	0.225084	
2929.000000	657.931858	0.213414	
2930.000000	658.051557	0.211658	
2931.000000	658.171258	0.221470	
2932.000000	658.290961	0.225535	
2933.000000	658.410665	0.207994	
2934.000000	658.530371	0.210403	
2935.000000	658.650078	0.218233	
2936.000000	658.769787	0.224958	
2937.000000	658.889497	0.206664	
2938.000000	659.009210	0.209600	
2939.000000	659.128923	0.220215	
2940.000000	659.248639	0.216526	
2941.000000	659.368356	0.200892	
2942.000000	659.488074	0.206362	
2943.000000	659.607794	0.207693	
2944.000000	659.727516	0.210001	
2945.000000	659.847240	0.202121	
2946.000000	659.966965	0.204480	
2947.000000	660.086691	0.212837	
2948.000000	660.206419	0.212586	
2949.000000	660.326149	0.193037	
2950.000000	660.445880	0.198984	
2951.000000	660.565613	0.209901	
2952.000000	660.685348	0.212686	
2953.000000	660.805084	0.196324	
2954.000000	660.924821	0.198859	
2955.000000	661.044561	0.213314	
2956.000000	661.164301	0.222825	
2957.000000	661.284044	0.194041	
2958.000000	661.403788	0.190703	
2959.000000	661.523533	0.202172	
2960.000000	661.643280	0.207743	
2961.000000	661.763029	0.189724	
2962.000000	661.882779	0.193162	
2963.000000	662.002531	0.205861	
2964.000000	662.122284	0.200440	
2965.000000	662.242039	0.182873	
2966.000000	662.361795	0.179009	
2967.000000	662.481553	0.206915	
2968.000000	662.601313	0.208646	
2969.000000	662.721074	0.187566	
2970.000000	662.840837	0.189248	
2971.000000	662.960601	0.203125	
2972.000000	663.080367	0.206463	
2973.000000	663.200134	0.184053	
2974.000000	663.319903	0.180690	
2975.000000	663.439673	0.204907	
2976.000000	663.559445	0.206488	
2977.000000	663.679219	0.179862	
2978.000000	663.798994	0.181493	
2979.000000	663.918770	0.206588	
2980.000000	664.038548	0.192108	
2981.000000	664.158328	0.175144	
2982.000000	664.278109	0.173362	
2983.000000	664.397892	0.194593	
2984.000000	664.517676	0.182120	
2985.000000	664.637462	0.177980	
2986.000000	664.757249	0.170376	
2987.000000	664.877038	0.186311	
2988.000000	664.996828	0.186562	
2989.000000	665.116620	0.166461	
2990.000000	665.236413	0.167415	
2991.000000	665.356208	0.174843	
2992.000000	665.476005	0.189749	
2993.000000	665.595802	0.169171	
2994.000000	665.715602	0.166687	
2995.000000	665.835403	0.173488	
2996.000000	665.955205	0.181568	
2997.000000	666.075009	0.169171	
2998.000000	666.194815	0.164704	
2999.000000	666.314621	0.177628	
3000.000000	666.434430	0.169849	
3001.000000	666.554240	0.166260	
3002.000000	666.674051	0.163901	
3003.000000	666.793864	0.181167	
3004.000000	666.913679	0.175320	
3005.000000	667.033494	0.158531	
3006.000000	667.153312	0.155620	
3007.000000	667.273131	0.170326	
3008.000000	667.392951	0.182773	
3009.000000	667.512773	0.160012	
3010.000000	667.632596	0.154867	
3011.000000	667.752421	0.173387	
3012.000000	667.872247	0.171129	
3013.000000	667.992075	0.155093	
3014.000000	668.111904	0.158330	
3015.000000	668.231735	0.164453	
3016.000000	668.351567	0.170928	
3017.000000	668.471401	0.151529	
3018.000000	668.591236	0.158832	
3019.000000	668.711073	0.172459	
3020.000000	668.830911	0.168268	
3021.000000	668.950750	0.148919	
3022.000000	669.070591	0.148292	
3023.000000	669.190434	0.162220	
3024.000000	669.310278	0.157452	
3025.000000	669.430123	0.144628	
3026.000000	669.549970	0.153110	
3027.000000	669.669818	0.159811	
3028.000000	669.789668	0.163123	
3029.000000	669.909519	0.143925	
3030.000000	670.029372	0.142671	
3031.000000	670.149226	0.168469	
3032.000000	670.269081	0.156799	
3033.000000	670.388938	0.145582	
3034.000000	670.508797	0.139960	
3035.000000	670.628657	0.165106	
3036.000000	670.748518	0.157954	
3037.000000	670.868381	0.143951	
3038.000000	670.988245	0.140312	
3039.000000	671.108110	0.152483	
3040.000000	671.227977	0.138630	
3041.000000	671.347846	0.136723	
3042.000000	671.467716	0.144678	
3043.000000	671.587587	0.149095	
3044.000000	671.707460	0.129546	
3045.000000	671.827334	0.129546	
3046.000000	671.947210	0.147439	
3047.000000	672.067087	0.149020	
3048.000000	672.186965	0.131428	
3049.000000	672.306845	0.132482	
3050.000000	672.426726	0.158807	
3051.000000	672.546609	0.148493	
3052.000000	672.666493	0.136723	
3053.000000	672.786378	0.136046	
3054.000000	672.906265	0.147715	
3055.000000	673.026154	0.138982	
3056.000000	673.146043	0.124226	
3057.000000	673.265934	0.127112	
3058.000000	673.385827	0.145256	
3059.000000	673.505721	0.142871	
3060.000000	673.625616	0.126258	
3061.000000	673.745513	0.128617	
3062.000000	673.865411	0.142043	
3063.000000	673.985310	0.136522	
3064.000000	674.105211	0.127212	
3065.000000	674.225114	0.120988	
3066.000000	674.345017	0.143599	
3067.000000	674.464922	0.128743	
3068.000000	674.584829	0.118379	
3069.000000	674.704737	0.115944	
3070.000000	674.824646	0.132959	
3071.000000	674.944556	0.129119	
3072.000000	675.064468	0.122293	
3073.000000	675.184382	0.117099	
3074.000000	675.304296	0.128542	
3075.000000	675.424212	0.139935	
3076.000000	675.544130	0.112807	
3077.000000	675.664049	0.116220	
3078.000000	675.783969	0.131453	
3079.000000	675.903890	0.131227	
3080.000000	676.023813	0.119282	
3081.000000	676.143738	0.106960	
3082.000000	676.263663	0.132030	
3083.000000	676.383590	0.123899	
3084.000000	676.503519	0.107362	
3085.000000	676.623448	0.107035	
3086.000000	676.743379	0.130876	
3087.000000	676.863312	0.122645	
3088.000000	676.983245	0.104877	
3089.000000	677.103181	0.104124	
3090.000000	677.223117	0.121089	
3091.000000	677.343055	0.122168	
3092.000000	677.462994	0.106383	
3093.000000	677.582934	0.104350	
3094.000000	677.702876	0.124351	
3095.000000	677.822819	0.122168	
3096.000000	677.942764	0.104752	
3097.000000	678.062710	0.100536	
3098.000000	678.182657	0.116421	
3099.000000	678.302605	0.119081	
3100.000000	678.422555	0.104375	
3101.000000	678.542506	0.102669	
3102.000000	678.662459	0.119834	
3103.000000	678.782413	0.112657	
3104.000000	678.902368	0.100435	
3105.000000	679.022324	0.101866	
3106.000000	679.142282	0.123122	
3107.000000	679.262241	0.110775	
3108.000000	679.382202	0.095968	
3109.000000	679.502163	0.101289	
3110.000000	679.622126	0.114238	
3111.000000	679.742091	0.111829	
3112.000000	679.862056	0.093333	
3113.000000	679.982023	0.097675	
3114.000000	680.101991	0.102568	
3115.000000	680.221961	0.109344	
3116.000000	680.341932	0.091677	
3117.000000	680.461904	0.093710	
3118.000000	680.581877	0.122871	
3119.000000	680.701852	0.101690	
3120.000000	680.821828	0.095542	
3121.000000	680.941806	0.093685	
3122.000000	681.061784	0.108767	
3123.000000	681.181764	0.112481	
3124.000000	681.301745	0.091527	
3125.000000	681.421728	0.091978	
3126.000000	681.541712	0.094312	
3127.000000	681.661697	0.106483	
3128.000000	681.781683	0.090021	
3129.000000	681.901671	0.088089	
3130.000000	682.021660	0.105003	
3131.000000	682.141650	0.095341	
3132.000000	682.261641	0.082969	
3133.000000	682.381634	0.083772	
3134.000000	682.501628	0.098302	
3135.000000	682.621623	0.100059	
3136.000000	682.741620	0.085930	
3137.000000	682.861618	0.080585	
3138.000000	682.981617	0.118228	
3139.000000	683.101617	0.100385	
3140.000000	683.221619	0.085177	
3141.000000	683.341622	0.083245	
3142.000000	683.461626	0.092254	
3143.000000	683.581631	0.106810	
3144.000000	683.701638	0.077172	
3145.000000	683.821646	0.090347	
3146.000000	683.941655	0.100084	
3147.000000	684.061665	0.093032	
3148.000000	684.181677	0.083320	
3149.000000	684.301690	0.078025	
3150.000000	684.421704	0.088741	
3151.000000	684.541719	0.103522	
3152.000000	684.661736	0.079581	
3153.000000	684.781753	0.076695	
3154.000000	684.901773	0.097575	
3155.000000	685.021793	0.105781	
3156.000000	685.141814	0.077298	
3157.000000	685.261837	0.076821	
3158.000000	685.381861	0.090372	
3159.000000	685.501886	0.105028	
3160.000000	685.621913	0.075064	
3161.000000	685.741941	0.075691	
3162.000000	685.861969	0.081965	
3163.000000	685.982000	0.084500	
3164.000000	686.102031	0.073358	
3165.000000	686.222063	0.071852	
3166.000000	686.342097	0.085228	
3167.000000	686.462132	0.091527	
3168.000000	686.582168	0.072831	
3169.000000	686.702206	0.073307	
3170.000000	686.822245	0.083496	
3171.000000	686.942284	0.080510	
3172.000000	687.062325	0.069041	
3173.000000	687.182368	0.075039	
3174.000000	687.302411	0.081187	
3175.000000	687.422456	0.093961	
3176.000000	687.542502	0.068840	
3177.000000	687.662549	0.071049	
3178.000000	687.782597	0.077298	
3179.000000	687.902646	0.081915	
3180.000000	688.022697	0.071802	
3181.000000	688.142749	0.063972	
3182.000000	688.262802	0.081564	
3183.000000	688.382856	0.084876	
3184.000000	688.502911	0.069317	
3185.000000	688.622968	0.064976	
3186.000000	688.743026	0.085629	
3187.000000	688.863085	0.081238	
3188.000000	688.983145	0.066281	
3189.000000	689.103206	0.071676	
3190.000000	689.223269	0.075917	
3191.000000	689.343332	0.085981	
3192.000000	689.463397	0.063872	
3193.000000	689.583463	0.065754	
3194.000000	689.703530	0.074587	
3195.000000	689.823599	0.079707	
3196.000000	689.943668	0.061538	
3197.000000	690.063739	0.064524	
3198.000000	690.183810	0.076771	
3199.000000	690.303883	0.079406	
3200.000000	690.423958	0.061136	
3201.000000	690.544033	0.064273	
3202.000000	690.664109	0.077272	
3203.000000	690.784187	0.075390	
3204.000000	690.904266	0.063696	
3205.000000	691.024346	0.058426	
3206.000000	691.144427	0.072655	
3207.000000	691.264509	0.068464	
3208.000000	691.384592	0.057021	
3209.000000	691.504677	0.060609	
3210.000000	691.624762	0.078076	
3211.000000	691.744849	0.079155	
3212.000000	691.864937	0.056619	
3213.000000	691.985026	0.057246	
3214.000000	692.105116	0.075365	
3215.000000	692.225207	0.073358	
3216.000000	692.345300	0.057548	
3217.000000	692.465393	0.057447	
3218.000000	692.585488	0.066983	
3219.000000	692.705584	0.064775	
3220.000000	692.825681	0.059806	
3221.000000	692.945779	0.055364	
3222.000000	693.065878	0.066482	
3223.000000	693.185978	0.072881	
3224.000000	693.306080	0.054310	
3225.000000	693.426182	0.055339	
3226.000000	693.546286	0.067812	
3227.000000	693.666391	0.064047	
3228.000000	693.786497	0.056945	
3229.000000	693.906604	0.049542	
3230.000000	694.026712	0.068063	
3231.000000	694.146821	0.062742	
3232.000000	694.266931	0.057824	
3233.000000	694.387043	0.052805	
3234.000000	694.507155	0.079054	
3235.000000	694.627269	0.071475	
3236.000000	694.747383	0.056669	
3237.000000	694.867499	0.050496	
3238.000000	694.987616	0.065302	
3239.000000	695.107734	0.077523	
3240.000000	695.227853	0.055038	
3241.000000	695.347973	0.049818	
3242.000000	695.468094	0.065227	
3243.000000	695.588217	0.060835	
3244.000000	695.708340	0.053583	
3245.000000	695.828465	0.048764	
3246.000000	695.948590	0.064248	
3247.000000	696.068717	0.062617	
3248.000000	696.188845	0.051123	
3249.000000	696.308973	0.046983	
3250.000000	696.429103	0.062717	
3251.000000	696.549234	0.064926	
3252.000000	696.669366	0.050772	
3253.000000	696.789499	0.046832	
3254.000000	696.909633	0.071726	
3255.000000	697.029769	0.065202	
3256.000000	697.149905	0.048990	
3257.000000	697.270042	0.047158	
3258.000000	697.390181	0.061789	
3259.000000	697.510320	0.062717	
3260.000000	697.630461	0.045577	
3261.000000	697.750602	0.048413	
3262.000000	697.870745	0.060986	
3263.000000	697.990888	0.062592	
3264.000000	698.111033	0.049266	
3265.000000	698.231179	0.052780	
3266.000000	698.351326	0.067636	
3267.000000	698.471474	0.061688	
3268.000000	698.591623	0.047685	
3269.000000	698.711772	0.050295	
3270.000000	698.831923	0.065227	
3271.000000	698.952075	0.058075	
3272.000000	699.072228	0.048814	
3273.000000	699.192383	0.046230	
3274.000000	699.312538	0.065678	
3275.000000	699.432694	0.051199	
3276.000000	699.552851	0.048990	
3277.000000	699.673009	0.044097	
3278.000000	699.793168	0.056845	
3279.000000	699.913329	0.055967	
3280.000000	700.033490	0.039956	
3281.000000	700.153652	0.042892	
3282.000000	700.273815	0.059354	
3283.000000	700.393980	0.067586	
3284.000000	700.514145	0.040131	
3285.000000	700.634311	0.049040	
3286.000000	700.754479	0.052780	
3287.000000	700.874647	0.062165	
3288.000000	700.994817	0.042340	
3289.000000	701.114987	0.044573	
3290.000000	701.235158	0.048112	
3291.000000	701.355331	0.058100	
3292.000000	701.475504	0.042340	
3293.000000	701.595679	0.047610	
3294.000000	701.715854	0.054511	
3295.000000	701.836030	0.055415	
3296.000000	701.956208	0.044749	
3297.000000	702.076386	0.066783	
3298.000000	702.196565	0.050722	
3299.000000	702.316746	0.039604	
3300.000000	702.436927	0.041938	
3301.000000	702.557109	0.062843	
3302.000000	702.677293	0.053959	
3303.000000	702.797477	0.040960	
3304.000000	702.917662	0.036066	
3305.000000	703.037849	0.053030	
3306.000000	703.158036	0.054913	
3307.000000	703.278224	0.036543	
3308.000000	703.398413	0.037948	
3309.000000	703.518603	0.056368	
3310.000000	703.638794	0.048965	
3311.000000	703.758986	0.031800	
3312.000000	703.879180	0.036317	
3313.000000	703.999374	0.052177	
3314.000000	704.119569	0.057899	
3315.000000	704.239764	0.036944	
3316.000000	704.359961	0.034661	
3317.000000	704.480159	0.058853	
3318.000000	704.600358	0.053457	
3319.000000	704.720558	0.036518	
3320.000000	704.840759	0.039278	
3321.000000	704.960960	0.057021	
3322.000000	705.081163	0.056544	
3323.000000	705.201366	0.033557	
3324.000000	705.321571	0.033682	
3325.000000	705.441776	0.044749	
3326.000000	705.561983	0.050119	
3327.000000	705.682190	0.035062	
3328.000000	705.802399	0.032327	
3329.000000	705.922608	0.057773	
3330.000000	706.042818	0.052503	
3331.000000	706.163029	0.034134	
3332.000000	706.283241	0.032829	
3333.000000	706.403454	0.051274	
3334.000000	706.523668	0.045527	
3335.000000	706.643883	0.033155	
3336.000000	706.764099	0.033055	
3337.000000	706.884315	0.047284	
3338.000000	707.004533	0.054461	
3339.000000	707.124751	0.030871	
3340.000000	707.244971	0.031624	
3341.000000	707.365191	0.048388	
3342.000000	707.485412	0.054662	
3343.000000	707.605635	0.032603	
3344.000000	707.725858	0.035338	
3345.000000	707.846082	0.048564	
3346.000000	707.966307	0.050948	
3347.000000	708.086532	0.033130	
3348.000000	708.206759	0.033582	
3349.000000	708.326987	0.047811	
3350.000000	708.447215	0.050119	
3351.000000	708.567445	0.031097	
3352.000000	708.687675	0.030721	
3353.000000	708.807906	0.049969	
3354.000000	708.928138	0.048187	
3355.000000	709.048371	0.030620	
3356.000000	709.168605	0.032603	
3357.000000	709.288840	0.042139	
3358.000000	709.409076	0.050471	
3359.000000	709.529312	0.027534	
3360.000000	709.649550	0.030545	
3361.000000	709.769788	0.043068	
3362.000000	709.890027	0.046606	
3363.000000	710.010267	0.027885	
3364.000000	710.130508	0.031825	
3365.000000	710.250750	0.048137	
3366.000000	710.370993	0.054335	
3367.000000	710.491237	0.029968	
3368.000000	710.611481	0.033607	
3369.000000	710.731726	0.054637	
3370.000000	710.851973	0.048865	
3371.000000	710.972220	0.029792	
3372.000000	711.092468	0.034485	
3373.000000	711.212716	0.045251	
3374.000000	711.332966	0.042541	
3375.000000	711.453217	0.026304	
3376.000000	711.573468	0.033933	
3377.000000	711.693720	0.040935	
3378.000000	711.813973	0.051500	
3379.000000	711.934227	0.029516	
3380.000000	712.054482	0.026756	
3381.000000	712.174738	0.054511	
3382.000000	712.294994	0.044247	
3383.000000	712.415252	0.029591	
3384.000000	712.535510	0.029115	
3385.000000	712.655769	0.045552	
3386.000000	712.776029	0.048112	
3387.000000	712.896289	0.026605	
3388.000000	713.016551	0.026956	
3389.000000	713.136813	0.039554	
3390.000000	713.257076	0.053281	
3391.000000	713.377341	0.029466	
3392.000000	713.497605	0.026279	
3393.000000	713.617871	0.047861	
3394.000000	713.738138	0.035163	
3395.000000	713.858405	0.025150	
3396.000000	713.978673	0.026279	
3397.000000	714.098942	0.039278	
3398.000000	714.219212	0.031950	
3399.000000	714.339483	0.028989	
3400.000000	714.459754	0.027659	
3401.000000	714.580026	0.044322	
3402.000000	714.700299	0.044498	
3403.000000	714.820573	0.027207	
3404.000000	714.940848	0.024071	
3405.000000	715.061123	0.035489	
3406.000000	715.181400	0.041537	
3407.000000	715.301677	0.023644	
3408.000000	715.421955	0.024848	
3409.000000	715.542234	0.042039	
3410.000000	715.662513	0.043846	
3411.000000	715.782793	0.028086	
3412.000000	715.903075	0.024522	
3413.000000	716.023356	0.038475	
3414.000000	716.143639	0.038124	
3415.000000	716.263923	0.023719	
3416.000000	716.384207	0.016743	
3417.000000	716.504492	0.035388	
3418.000000	716.624778	0.041963	
3419.000000	716.745064	0.024598	
3420.000000	716.865352	0.023544	
3421.000000	716.985640	0.043369	
3422.000000	717.105929	0.048814	
3423.000000	717.226219	0.026003	
3424.000000	717.346509	0.057849	
3425.000000	717.466801	0.044548	
3426.000000	717.587093	0.044297	
3427.000000	717.707386	0.021310	
3428.000000	717.827679	0.020156	
3429.000000	717.947974	0.042566	
3430.000000	718.068269	0.035865	
3431.000000	718.188565	0.023744	
3432.000000	718.308861	0.026304	
3433.000000	718.429159	0.038074	
3434.000000	718.549457	0.038350	
3435.000000	718.669756	0.019277	
3436.000000	718.790056	0.023970	
3437.000000	718.910356	0.044523	
3438.000000	719.030657	0.037070	
3439.000000	719.150959	0.021009	
3440.000000	719.271262	0.022791	
3441.000000	719.391565	0.042315	
3442.000000	719.511870	0.034611	
3443.000000	719.632175	0.022364	
3444.000000	719.752480	0.021912	
3445.000000	719.872787	0.036392	
3446.000000	719.993094	0.030545	
3447.000000	720.113402	0.032452	
3448.000000	720.233710	0.025375	
3449.000000	720.354020	0.041361	
3450.000000	720.474330	0.037547	
3451.000000	720.594641	0.022314	
3452.000000	720.714952	0.024221	
3453.000000	720.835264	0.029893	
3454.000000	720.955577	0.039529	
3455.000000	721.075891	0.021436	
3456.000000	721.196206	0.015915	
3457.000000	721.316521	0.043319	
3458.000000	721.436837	0.044975	
3459.000000	721.557153	0.019629	
3460.000000	721.677471	0.016416	
3461.000000	721.797789	0.033883	
3462.000000	721.918107	0.034259	
3463.000000	722.038427	0.016743	
3464.000000	722.158747	0.016467	
3465.000000	722.279068	0.038726	
3466.000000	722.399389	0.038877	
3467.000000	722.519712	0.024347	
3468.000000	722.640035	0.019829	
3469.000000	722.760358	0.029842	
3470.000000	722.880683	0.030395	
3471.000000	723.001008	0.021260	
3472.000000	723.121333	0.017847	
3473.000000	723.241660	0.030219	
3474.000000	723.361987	0.035288	
3475.000000	723.482315	0.017395	
3476.000000	723.602643	0.019252	
3477.000000	723.722972	0.033130	
3478.000000	723.843302	0.038450	
3479.000000	723.963633	0.020984	
3480.000000	724.083964	0.019127	
3481.000000	724.204296	0.036719	
3482.000000	724.324629	0.030319	
3483.000000	724.444962	0.016216	
3484.000000	724.565296	0.015588	
3485.000000	724.685630	0.031223	
3486.000000	724.805966	0.038149	
3487.000000	724.926302	0.016442	
3488.000000	725.046638	0.021787	
3489.000000	725.166975	0.034887	
3490.000000	725.287313	0.026580	
3491.000000	725.407652	0.014434	
3492.000000	725.527991	0.019679	
3493.000000	725.648331	0.034435	
3494.000000	725.768672	0.038099	
3495.000000	725.889013	0.016467	
3496.000000	726.009355	0.015940	
3497.000000	726.129697	0.023870	
3498.000000	726.250040	0.030093	
3499.000000	726.370384	0.017445	
3500.000000	726.490729	0.018449	
3501.000000	726.611074	0.026831	
3502.000000	726.731420	0.030319	
3503.000000	726.851766	0.017671	
3504.000000	726.972113	0.016868	
3505.000000	727.092461	0.033230	
3506.000000	727.212809	0.039027	
3507.000000	727.333158	0.019378	
3508.000000	727.453508	0.016065	
3509.000000	727.573858	0.030545	
3510.000000	727.694209	0.033908	
3511.000000	727.814560	0.011975	
3512.000000	727.934912	0.018173	
3513.000000	728.055265	0.031499	
3514.000000	728.175618	0.028839	
3515.000000	728.295972	0.019478	
3516.000000	728.416327	0.012552	
3517.000000	728.536682	0.022590	
3518.000000	728.657038	0.032653	
3519.000000	728.777394	0.013079	
3520.000000	728.897751	0.013330	
3521.000000	729.018109	0.028814	
3522.000000	729.138467	0.027835	
3523.000000	729.258826	0.015588	
3524.000000	729.379185	0.011573	
3525.000000	729.499545	0.029391	
3526.000000	729.619906	0.027609	
3527.000000	729.740267	0.010795	
3528.000000	729.860629	0.014283	
3529.000000	729.980991	0.033707	
3530.000000	730.101354	0.028236	
3531.000000	730.221718	0.012803	
3532.000000	730.342082	0.013330	
3533.000000	730.462447	0.021461	
3534.000000	730.582812	0.032402	
3535.000000	730.703178	0.015337	
3536.000000	730.823545	0.018073	
3537.000000	730.943912	0.031976	
3538.000000	731.064280	0.026455	
3539.000000	731.184648	0.012226	
3540.000000	731.305017	0.012376	
3541.000000	731.425386	0.027634	
3542.000000	731.545757	0.021586	
3543.000000	731.666127	0.010343	
3544.000000	731.786498	0.011297	
3545.000000	731.906870	0.037697	
3546.000000	732.027242	0.027534	
3547.000000	732.147615	0.007357	
3548.000000	732.267989	0.010369	
3549.000000	732.388363	0.031298	
3550.000000	732.508737	0.032528	
3551.000000	732.629112	0.008311	
3552.000000	732.749488	0.028186	
3553.000000	732.869864	0.024071	
3554.000000	732.990241	0.014108	
3555.000000	733.110618	0.009440	
3556.000000	733.230996	0.023067	
3557.000000	733.351375	0.033030	
3558.000000	733.471754	0.012401	
3559.000000	733.592133	0.010569	
3560.000000	733.712513	0.035138	
3561.000000	733.832894	0.032151	
3562.000000	733.953275	0.011197	
3563.000000	734.073657	0.008311	
3564.000000	734.194039	0.025576	
3565.000000	734.314422	0.021109	
3566.000000	734.434805	0.008060	
3567.000000	734.555189	0.008210	
3568.000000	734.675573	0.021937	
3569.000000	734.795958	0.031699	
3570.000000	734.916343	0.009415	
3571.000000	735.036729	0.011849	
3572.000000	735.157116	0.035439	
3573.000000	735.277503	0.024798	
3574.000000	735.397890	0.009666	
3575.000000	735.518278	0.011749	
3576.000000	735.638667	0.020356	
3577.000000	735.759056	0.028964	
3578.000000	735.879445	0.008386	
3579.000000	735.999835	0.012451	
3580.000000	736.120226	0.019955	
3581.000000	736.240617	0.023870	
3582.000000	736.361009	0.009992	
3583.000000	736.481401	0.009616	
3584.000000	736.601793	0.033833	
3585.000000	736.722186	0.026404	
3586.000000	736.842580	0.009465	
3587.000000	736.962974	0.005023	
3588.000000	737.083369	0.031775	
3589.000000	737.203764	0.020934	
3590.000000	737.324159	0.008261	
3591.000000	737.444555	0.012426	
3592.000000	737.564952	0.012527	
3593.000000	737.685349	0.018073	
3594.000000	737.805746	0.009565	
3595.000000	737.926144	0.008235	
3596.000000	738.046543	0.030947	
3597.000000	738.166942	0.028312	
3598.000000	738.287341	0.004321	
3599.000000	738.407741	0.007056	
3600.000000	738.528141	0.032603	
3601.000000	738.648542	0.021737	
3602.000000	738.768944	0.007859	
3603.000000	738.889345	0.007081	
3604.000000	739.009748	0.026731	
3605.000000	739.130150	0.019629	
3606.000000	739.250554	0.006680	
3607.000000	739.370957	0.006705	
3608.000000	739.491361	0.033657	
3609.000000	739.611766	0.019302	
3610.000000	739.732171	0.003819	
3611.000000	739.852576	0.006203	
3612.000000	739.972982	0.016065	
3613.000000	740.093389	0.029366	
3614.000000	740.213796	0.004948	
3615.000000	740.334203	0.006429	
3616.000000	740.454611	0.017370	
3617.000000	740.575019	0.024848	
3618.000000	740.695428	0.003643	
3619.000000	740.815837	0.007533	
3620.000000	740.936246	0.023293	
3621.000000	741.056656	0.018499	
3622.000000	741.177066	0.006328	
3623.000000	741.297477	0.005826	
3624.000000	741.417889	0.014861	
3625.000000	741.538300	0.018248	
3626.000000	741.658712	0.006504	
3627.000000	741.779125	0.003668	
3628.000000	741.899538	0.016969	
3629.000000	742.019951	0.025777	
3630.000000	742.140365	0.014083	
3631.000000	742.260779	0.006203	
3632.000000	742.381194	0.030771	
3633.000000	742.501609	0.018675	
3634.000000	742.622025	0.003141	
3635.000000	742.742440	0.003116	
3636.000000	742.862857	0.021912	
3637.000000	742.983274	0.018223	
3638.000000	743.103691	0.008612	
3639.000000	743.224108	0.006027	
3640.000000	743.344526	0.018274	
3641.000000	743.464945	0.025777	
3642.000000	743.585363	-0.016734	
3643.000000	743.705783	-0.015605	
3644.000000	743.826202	-0.015981	
3645.000000	743.946622	-0.015128	
3646.000000	744.067042	-0.016358	
3647.000000	744.187463	-0.016358	
